Raman Shift ; Dark Subtracted #1
-2.0000;7101.7160
-1.0000;6798.8320
0.0000;6279.8700
1.0000;5519.6470
2.0000;4540.1240
3.0000;3429.5680
4.0000;2404.2260
5.0000;1524.6650
6.0000;906.3201
7.0000;633.6045
8.0000;442.6645
9.0000;351.7928
10.0000;409.2617
11.0000;404.6573
12.0000;260.0372
13.0000;112.8294
14.0000;4.5738
15.0000;-33.6175
16.0000;-16.1164
17.0000;3.1029
18.0000;-0.7447
19.0000;0.0487
20.0000;2.7704
21.0000;6.1088
22.0000;10.6756
23.0000;14.6663
24.0000;17.0487
25.0000;17.7144
26.0000;17.2968
27.0000;15.3290
28.0000;13.2752
29.0000;13.9055
30.0000;20.0475
31.0000;28.7482
32.0000;36.4498
33.0000;41.5422
34.0000;42.7244
35.0000;40.7353
36.0000;36.1879
37.0000;29.3987
38.0000;23.1435
39.0000;19.7961
40.0000;19.6469
41.0000;21.2759
42.0000;23.8512
43.0000;27.0789
44.0000;28.4546
45.0000;24.7689
46.0000;18.0250
47.0000;12.2447
48.0000;10.4159
49.0000;12.7005
50.0000;17.3906
51.0000;21.5728
52.0000;26.7587
53.0000;34.0009
54.0000;44.4507
55.0000;56.5364
56.0000;69.4234
57.0000;82.8498
58.0000;94.9179
59.0000;108.2356
60.0000;123.5153
61.0000;140.4577
62.0000;166.6263
63.0000;213.4240
64.0000;271.4540
65.0000;334.3799
66.0000;395.4260
67.0000;448.0506
68.0000;509.9749
69.0000;607.5565
70.0000;723.9971
71.0000;849.7587
72.0000;995.7671
73.0000;1134.8950
74.0000;1261.9550
75.0000;1399.9820
76.0000;1511.5800
77.0000;1619.0550
78.0000;1775.8460
79.0000;1950.3990
80.0000;2121.7310
81.0000;2302.5050
82.0000;2458.8780
83.0000;2612.6900
84.0000;2816.4530
85.0000;3037.7000
86.0000;3256.9470
87.0000;3503.7660
88.0000;3735.0730
89.0000;3959.4150
90.0000;4231.0560
91.0000;4508.0170
92.0000;4763.1920
93.0000;5036.5750
94.0000;5278.0220
95.0000;5508.1850
96.0000;5812.7850
97.0000;6152.9130
98.0000;6475.6090
99.0000;6818.6920
100.0000;7131.1890
101.0000;7376.6520
102.0000;7648.3290
103.0000;7896.1120
104.0000;8106.2430
105.0000;8344.6080
106.0000;8578.1380
107.0000;8796.9980
108.0000;9090.0410
109.0000;9405.2900
110.0000;9693.9760
111.0000;9987.0300
112.0000;10240.4100
113.0000;10424.9100
114.0000;10628.9100
115.0000;10818.7400
116.0000;10980.1800
117.0000;11178.7000
118.0000;11394.8500
119.0000;11587.2200
120.0000;11770.6500
121.0000;11917.2700
122.0000;12027.3700
123.0000;12157.5400
124.0000;12292.9600
125.0000;12420.7400
126.0000;12575.7000
127.0000;12743.1300
128.0000;12898.0600
129.0000;13052.2100
130.0000;13184.1600
131.0000;13289.1500
132.0000;13404.8900
133.0000;13516.8900
134.0000;13617.4700
135.0000;13742.0900
136.0000;13879.1100
137.0000;13999.0800
138.0000;14106.5400
139.0000;14184.9500
140.0000;14227.5000
141.0000;14277.8900
142.0000;14328.4500
143.0000;14357.9500
144.0000;14382.1400
145.0000;14392.1000
146.0000;14390.2100
147.0000;14392.4300
148.0000;14398.2900
149.0000;14408.9500
150.0000;14431.5300
151.0000;14466.6700
152.0000;14503.3100
153.0000;14537.6700
154.0000;14564.0800
155.0000;14583.2700
156.0000;14607.8800
157.0000;14631.9400
158.0000;14651.6100
159.0000;14669.2100
160.0000;14681.3800
161.0000;14691.1100
162.0000;14708.1800
163.0000;14729.6200
164.0000;14757.1200
165.0000;14794.2200
166.0000;14838.7200
167.0000;14883.9300
168.0000;14937.0800
169.0000;14985.8400
170.0000;15028.5600
171.0000;15069.0900
172.0000;15099.7500
173.0000;15125.2100
174.0000;15169.3500
175.0000;15221.3700
176.0000;15265.6700
177.0000;15302.2400
178.0000;15319.7500
179.0000;15331.4500
180.0000;15357.1700
181.0000;15391.1700
182.0000;15428.5200
183.0000;15477.4900
184.0000;15528.1800
185.0000;15575.3500
186.0000;15629.6500
187.0000;15674.3400
188.0000;15710.5900
189.0000;15749.5500
190.0000;15775.8100
191.0000;15792.5900
192.0000;15811.6200
193.0000;15822.4400
194.0000;15829.4200
195.0000;15840.4100
196.0000;15851.3700
197.0000;15865.1300
198.0000;15890.8500
199.0000;15920.6100
200.0000;15943.2300
201.0000;15948.0500
202.0000;15937.9200
203.0000;15933.3700
204.0000;15956.1600
205.0000;15997.1000
206.0000;16041.7300
207.0000;16078.9400
208.0000;16107.6000
209.0000;16133.4100
210.0000;16167.4300
211.0000;16196.7100
212.0000;16228.0000
213.0000;16271.3000
214.0000;16310.8300
215.0000;16349.4000
216.0000;16389.6300
217.0000;16422.3300
218.0000;16457.9100
219.0000;16517.4400
220.0000;16574.2300
221.0000;16622.0300
222.0000;16659.7100
223.0000;16677.6000
224.0000;16688.4600
225.0000;16702.0000
226.0000;16710.1900
227.0000;16725.4200
228.0000;16754.3700
229.0000;16790.3900
230.0000;16833.7600
231.0000;16880.7600
232.0000;16930.1100
233.0000;16987.5600
234.0000;17056.4000
235.0000;17117.1900
236.0000;17169.0800
237.0000;17210.0800
238.0000;17233.3100
239.0000;17260.4200
240.0000;17296.4000
241.0000;17325.7600
242.0000;17352.7100
243.0000;17376.5200
244.0000;17389.7300
245.0000;17397.2600
246.0000;17396.2100
247.0000;17395.5400
248.0000;17414.0600
249.0000;17454.5500
250.0000;17496.6200
251.0000;17528.6200
252.0000;17540.8800
253.0000;17542.8800
254.0000;17552.8200
255.0000;17567.8600
256.0000;17579.7900
257.0000;17584.7700
258.0000;17581.5600
259.0000;17582.0900
260.0000;17599.9700
261.0000;17631.9600
262.0000;17671.0800
263.0000;17709.2800
264.0000;17742.0500
265.0000;17775.2000
266.0000;17823.3200
267.0000;17872.1500
268.0000;17913.7400
269.0000;17948.0000
270.0000;17966.0900
271.0000;17982.9100
272.0000;18021.5800
273.0000;18064.5700
274.0000;18105.3700
275.0000;18146.2100
276.0000;18175.1500
277.0000;18197.6000
278.0000;18220.4600
279.0000;18236.8600
280.0000;18261.5300
281.0000;18310.8000
282.0000;18365.6000
283.0000;18417.8900
284.0000;18462.7000
285.0000;18493.9300
286.0000;18525.1100
287.0000;18563.2800
288.0000;18597.6100
289.0000;18639.8500
290.0000;18699.7200
291.0000;18748.7300
292.0000;18780.3600
293.0000;18783.5700
294.0000;18771.4900
295.0000;18776.1700
296.0000;18807.0600
297.0000;18844.3300
298.0000;18875.7600
299.0000;18893.8800
300.0000;18908.6700
301.0000;18938.8700
302.0000;18980.3600
303.0000;19020.0100
304.0000;19055.2500
305.0000;19077.4700
306.0000;19087.8900
307.0000;19096.0500
308.0000;19096.6500
309.0000;19096.4100
310.0000;19106.3400
311.0000;19123.9800
312.0000;19147.5100
313.0000;19180.1100
314.0000;19215.5300
315.0000;19244.2800
316.0000;19257.3800
317.0000;19259.2500
318.0000;19274.5500
319.0000;19338.8300
320.0000;19419.4300
321.0000;19488.9700
322.0000;19523.2100
323.0000;19529.5700
324.0000;19545.5100
325.0000;19604.9600
326.0000;19670.4400
327.0000;19723.4800
328.0000;19746.3600
329.0000;19752.1700
330.0000;19778.4000
331.0000;19844.7800
332.0000;19918.0000
333.0000;19974.0900
334.0000;19999.8200
335.0000;20006.7600
336.0000;20025.0600
337.0000;20056.3300
338.0000;20089.2900
339.0000;20126.7400
340.0000;20164.4300
341.0000;20198.8000
342.0000;20240.5800
343.0000;20282.5200
344.0000;20316.6300
345.0000;20350.0500
346.0000;20373.8000
347.0000;20391.9300
348.0000;20421.5700
349.0000;20451.7600
350.0000;20476.2700
351.0000;20499.7500
352.0000;20513.8600
353.0000;20522.7000
354.0000;20532.3800
355.0000;20540.0300
356.0000;20554.9000
357.0000;20594.4500
358.0000;20636.1400
359.0000;20664.8300
360.0000;20663.9700
361.0000;20647.9400
362.0000;20647.5200
363.0000;20683.1300
364.0000;20728.0500
365.0000;20762.0900
366.0000;20770.3000
367.0000;20764.1200
368.0000;20761.5400
369.0000;20765.3400
370.0000;20773.8400
371.0000;20791.4900
372.0000;20818.9000
373.0000;20846.7600
374.0000;20870.3200
375.0000;20883.9300
376.0000;20896.7000
377.0000;20920.9700
378.0000;20951.7600
379.0000;20982.6900
380.0000;21018.0900
381.0000;21047.4200
382.0000;21071.9400
383.0000;21100.3800
384.0000;21119.3900
385.0000;21132.8000
386.0000;21140.2900
387.0000;21144.6100
388.0000;21165.3400
389.0000;21219.4200
390.0000;21286.0900
391.0000;21341.8800
392.0000;21372.4500
393.0000;21387.5100
394.0000;21419.3000
395.0000;21476.5500
396.0000;21538.3900
397.0000;21595.1400
398.0000;21639.6700
399.0000;21672.5300
400.0000;21714.2000
401.0000;21759.5300
402.0000;21795.3500
403.0000;21831.8600
404.0000;21856.6600
405.0000;21868.8000
406.0000;21879.4000
407.0000;21880.4300
408.0000;21878.9900
409.0000;21878.0100
410.0000;21883.1700
411.0000;21910.3400
412.0000;21979.0400
413.0000;22069.4700
414.0000;22148.8300
415.0000;22189.8500
416.0000;22204.6700
417.0000;22233.6200
418.0000;22303.3700
419.0000;22377.0900
420.0000;22437.1500
421.0000;22469.7000
422.0000;22477.1200
423.0000;22482.7600
424.0000;22487.3900
425.0000;22483.6600
426.0000;22475.9000
427.0000;22464.6200
428.0000;22461.4200
429.0000;22481.0600
430.0000;22521.8400
431.0000;22562.6300
432.0000;22588.6100
433.0000;22595.9800
434.0000;22598.1900
435.0000;22610.3600
436.0000;22624.5000
437.0000;22642.3200
438.0000;22668.6400
439.0000;22694.7700
440.0000;22720.5400
441.0000;22745.2000
442.0000;22761.9300
443.0000;22774.2900
444.0000;22781.6400
445.0000;22786.5700
446.0000;22803.2800
447.0000;22834.8200
448.0000;22866.8600
449.0000;22891.2800
450.0000;22901.1800
451.0000;22912.0000
452.0000;22947.0700
453.0000;22999.1400
454.0000;23049.4000
455.0000;23092.1000
456.0000;23117.4800
457.0000;23136.9600
458.0000;23172.4900
459.0000;23203.7300
460.0000;23226.5200
461.0000;23240.2800
462.0000;23243.9000
463.0000;23255.7800
464.0000;23285.6800
465.0000;23326.1500
466.0000;23378.5500
467.0000;23440.8400
468.0000;23500.6500
469.0000;23558.5600
470.0000;23608.7400
471.0000;23638.1000
472.0000;23654.3000
473.0000;23648.6300
474.0000;23636.0400
475.0000;23644.3900
476.0000;23667.4900
477.0000;23692.9300
478.0000;23709.9600
479.0000;23720.9100
480.0000;23736.8000
481.0000;23766.4500
482.0000;23803.8900
483.0000;23852.3600
484.0000;23920.8000
485.0000;23981.9600
486.0000;24020.6400
487.0000;24021.4900
488.0000;24002.1400
489.0000;24004.5300
490.0000;24038.3600
491.0000;24076.8400
492.0000;24102.7400
493.0000;24109.7900
494.0000;24108.9000
495.0000;24113.1200
496.0000;24119.8000
497.0000;24133.6400
498.0000;24162.5400
499.0000;24200.2300
500.0000;24239.0000
501.0000;24270.9100
502.0000;24297.6200
503.0000;24337.0400
504.0000;24410.8700
505.0000;24479.3900
506.0000;24518.3300
507.0000;24508.1300
508.0000;24468.7600
509.0000;24447.5900
510.0000;24453.7600
511.0000;24469.8200
512.0000;24483.1000
513.0000;24493.3300
514.0000;24505.1700
515.0000;24522.2500
516.0000;24541.4600
517.0000;24562.7500
518.0000;24583.9800
519.0000;24604.8600
520.0000;24633.9300
521.0000;24687.3700
522.0000;24739.4800
523.0000;24773.9100
524.0000;24776.2200
525.0000;24758.1900
526.0000;24752.6600
527.0000;24770.3900
528.0000;24793.0200
529.0000;24808.0600
530.0000;24811.0800
531.0000;24814.8800
532.0000;24832.2700
533.0000;24860.5500
534.0000;24896.1300
535.0000;24937.9600
536.0000;24978.2000
537.0000;25013.8000
538.0000;25042.6700
539.0000;25062.9600
540.0000;25098.4500
541.0000;25166.8500
542.0000;25241.5900
543.0000;25304.9600
544.0000;25345.8900
545.0000;25367.9900
546.0000;25396.9200
547.0000;25426.8700
548.0000;25455.4100
549.0000;25496.4100
550.0000;25539.1400
551.0000;25582.0900
552.0000;25635.8600
553.0000;25684.5400
554.0000;25721.0000
555.0000;25753.5600
556.0000;25767.7500
557.0000;25779.0000
558.0000;25801.5800
559.0000;25815.4300
560.0000;25815.3200
561.0000;25797.0000
562.0000;25770.2500
563.0000;25752.9400
564.0000;25749.3600
565.0000;25755.2700
566.0000;25764.1100
567.0000;25777.6600
568.0000;25791.4800
569.0000;25801.7600
570.0000;25807.7000
571.0000;25812.5100
572.0000;25823.8900
573.0000;25832.0300
574.0000;25832.7400
575.0000;25820.2200
576.0000;25805.0400
577.0000;25800.2300
578.0000;25811.6400
579.0000;25832.9000
580.0000;25853.7900
581.0000;25872.8100
582.0000;25894.4600
583.0000;25921.6600
584.0000;25951.3800
585.0000;25984.1100
586.0000;26029.6400
587.0000;26073.4600
588.0000;26118.3100
589.0000;26170.6600
590.0000;26207.2800
591.0000;26220.5300
592.0000;26201.4300
593.0000;26168.6100
594.0000;26157.4900
595.0000;26177.5800
596.0000;26210.1300
597.0000;26236.0500
598.0000;26254.7600
599.0000;26270.7400
600.0000;26294.5100
601.0000;26315.2200
602.0000;26331.3400
603.0000;26343.5800
604.0000;26347.4000
605.0000;26351.1300
606.0000;26357.0600
607.0000;26365.9900
608.0000;26382.3300
609.0000;26406.9200
610.0000;26440.5100
611.0000;26488.8400
612.0000;26547.1000
613.0000;26596.6700
614.0000;26630.5900
615.0000;26641.5800
616.0000;26654.7300
617.0000;26700.9200
618.0000;26757.4200
619.0000;26816.1600
620.0000;26878.9500
621.0000;26926.2000
622.0000;26964.5700
623.0000;26986.0800
624.0000;26990.5000
625.0000;26998.1200
626.0000;27006.1600
627.0000;27017.8200
628.0000;27041.8900
629.0000;27076.3900
630.0000;27121.4400
631.0000;27191.2100
632.0000;27262.1600
633.0000;27320.1400
634.0000;27354.7500
635.0000;27364.9600
636.0000;27377.6800
637.0000;27398.2100
638.0000;27415.1900
639.0000;27432.5500
640.0000;27446.4900
641.0000;27458.3800
642.0000;27475.5300
643.0000;27493.4800
644.0000;27514.1500
645.0000;27544.2500
646.0000;27574.3600
647.0000;27600.2100
648.0000;27617.2400
649.0000;27628.0900
650.0000;27650.3000
651.0000;27689.7800
652.0000;27724.1000
653.0000;27740.4900
654.0000;27732.2700
655.0000;27717.2900
656.0000;27717.1400
657.0000;27726.9300
658.0000;27740.0000
659.0000;27747.8400
660.0000;27757.7000
661.0000;27778.2500
662.0000;27818.9700
663.0000;27860.4200
664.0000;27888.5900
665.0000;27893.7300
666.0000;27884.7600
667.0000;27876.8400
668.0000;27870.4600
669.0000;27874.9100
670.0000;27905.2800
671.0000;27952.7000
672.0000;27996.2600
673.0000;28018.3600
674.0000;28025.9400
675.0000;28043.3000
676.0000;28082.6800
677.0000;28119.1700
678.0000;28139.0300
679.0000;28134.2000
680.0000;28123.9600
681.0000;28133.0500
682.0000;28157.9000
683.0000;28188.4400
684.0000;28219.0100
685.0000;28246.4900
686.0000;28274.7900
687.0000;28310.1600
688.0000;28336.7300
689.0000;28352.7300
690.0000;28352.6900
691.0000;28344.6100
692.0000;28342.8200
693.0000;28349.8000
694.0000;28375.2100
695.0000;28434.4400
696.0000;28514.2500
697.0000;28587.7000
698.0000;28632.4300
699.0000;28654.2100
700.0000;28691.5300
701.0000;28761.6700
702.0000;28839.0900
703.0000;28930.4400
704.0000;29016.9900
705.0000;29075.8900
706.0000;29102.1900
707.0000;29083.4200
708.0000;29060.4300
709.0000;29086.5500
710.0000;29130.4300
711.0000;29167.2000
712.0000;29178.8600
713.0000;29176.9900
714.0000;29183.5200
715.0000;29202.5600
716.0000;29226.0400
717.0000;29250.9800
718.0000;29274.9900
719.0000;29305.2500
720.0000;29352.5200
721.0000;29405.7900
722.0000;29463.9600
723.0000;29529.3600
724.0000;29580.0300
725.0000;29615.3000
726.0000;29627.1500
727.0000;29621.7200
728.0000;29628.7200
729.0000;29646.0100
730.0000;29667.1000
731.0000;29695.6900
732.0000;29723.9300
733.0000;29746.3300
734.0000;29760.4600
735.0000;29762.4100
736.0000;29761.7200
737.0000;29760.1900
738.0000;29762.5800
739.0000;29782.4900
740.0000;29819.7900
741.0000;29854.8300
742.0000;29860.9500
743.0000;29846.7100
744.0000;29848.4000
745.0000;29912.1300
746.0000;29993.8900
747.0000;30053.1200
748.0000;30061.2900
749.0000;30041.3200
750.0000;30038.1300
751.0000;30055.6500
752.0000;30072.6700
753.0000;30080.3400
754.0000;30075.0100
755.0000;30056.4000
756.0000;30019.3600
757.0000;29979.3800
758.0000;29958.1100
759.0000;29971.4600
760.0000;30006.0400
761.0000;30038.9800
762.0000;30061.7500
763.0000;30077.8700
764.0000;30091.0500
765.0000;30095.1300
766.0000;30096.0000
767.0000;30102.7400
768.0000;30108.7700
769.0000;30114.6000
770.0000;30118.7900
771.0000;30124.2700
772.0000;30135.7500
773.0000;30153.0900
774.0000;30174.0500
775.0000;30195.4400
776.0000;30216.2700
777.0000;30240.6000
778.0000;30276.1000
779.0000;30313.4100
780.0000;30358.3900
781.0000;30414.8700
782.0000;30461.0300
783.0000;30494.1000
784.0000;30502.7500
785.0000;30506.5000
786.0000;30537.7100
787.0000;30583.7500
788.0000;30627.3500
789.0000;30667.2800
790.0000;30691.0100
791.0000;30707.3900
792.0000;30714.0600
793.0000;30716.3800
794.0000;30736.6300
795.0000;30774.0100
796.0000;30807.1800
797.0000;30818.4000
798.0000;30813.3800
799.0000;30825.1600
800.0000;30886.8300
801.0000;30960.6400
802.0000;31020.9200
803.0000;31046.2400
804.0000;31048.1800
805.0000;31052.8000
806.0000;31054.7900
807.0000;31057.7600
808.0000;31073.8200
809.0000;31095.9900
810.0000;31117.2800
811.0000;31132.8300
812.0000;31143.2500
813.0000;31156.3200
814.0000;31172.7300
815.0000;31183.3100
816.0000;31182.6600
817.0000;31171.7600
818.0000;31168.7900
819.0000;31186.6200
820.0000;31222.9200
821.0000;31272.6900
822.0000;31332.5700
823.0000;31388.1800
824.0000;31427.6400
825.0000;31439.0400
826.0000;31439.4500
827.0000;31458.7700
828.0000;31484.4700
829.0000;31513.1600
830.0000;31546.7900
831.0000;31574.4300
832.0000;31594.5600
833.0000;31602.4200
834.0000;31610.5200
835.0000;31645.8900
836.0000;31701.1600
837.0000;31756.6800
838.0000;31804.6100
839.0000;31828.6100
840.0000;31832.6700
841.0000;31818.5100
842.0000;31788.4300
843.0000;31770.3000
844.0000;31771.9700
845.0000;31771.8800
846.0000;31746.8500
847.0000;31704.7300
848.0000;31664.6500
849.0000;31633.3500
850.0000;31620.5500
851.0000;31622.5300
852.0000;31638.7600
853.0000;31671.2200
854.0000;31712.8100
855.0000;31756.1300
856.0000;31790.7500
857.0000;31805.8200
858.0000;31799.8500
859.0000;31798.4400
860.0000;31818.4600
861.0000;31847.7800
862.0000;31884.9800
863.0000;31924.4400
864.0000;31956.3900
865.0000;31974.6300
866.0000;31972.9400
867.0000;31967.5300
868.0000;31974.3200
869.0000;31986.5800
870.0000;32005.2000
871.0000;32027.5200
872.0000;32062.6700
873.0000;32126.1000
874.0000;32208.0100
875.0000;32282.5500
876.0000;32337.9200
877.0000;32363.5600
878.0000;32382.8900
879.0000;32410.4500
880.0000;32432.7300
881.0000;32465.8200
882.0000;32506.6100
883.0000;32540.4800
884.0000;32567.2800
885.0000;32576.5600
886.0000;32575.4200
887.0000;32567.7500
888.0000;32558.9800
889.0000;32567.6500
890.0000;32599.9500
891.0000;32652.2500
892.0000;32720.5800
893.0000;32794.5000
894.0000;32859.2000
895.0000;32904.2900
896.0000;32930.1000
897.0000;32980.1500
898.0000;33071.6400
899.0000;33164.7500
900.0000;33246.9800
901.0000;33298.3100
902.0000;33327.3600
903.0000;33363.6100
904.0000;33383.4200
905.0000;33401.1300
906.0000;33426.3400
907.0000;33447.7700
908.0000;33469.7500
909.0000;33488.9500
910.0000;33514.2500
911.0000;33565.2100
912.0000;33627.1000
913.0000;33680.3000
914.0000;33721.0200
915.0000;33736.2400
916.0000;33738.4800
917.0000;33725.1700
918.0000;33701.0000
919.0000;33682.8000
920.0000;33672.2100
921.0000;33671.5000
922.0000;33677.9000
923.0000;33698.9100
924.0000;33732.2100
925.0000;33776.5800
926.0000;33819.7000
927.0000;33848.6500
928.0000;33860.0900
929.0000;33879.8000
930.0000;33942.2500
931.0000;34015.0800
932.0000;34079.9400
933.0000;34117.7200
934.0000;34134.6500
935.0000;34154.8000
936.0000;34170.0600
937.0000;34189.1600
938.0000;34230.3700
939.0000;34279.3700
940.0000;34327.4700
941.0000;34368.9300
942.0000;34403.9500
943.0000;34452.9700
944.0000;34504.4300
945.0000;34535.5200
946.0000;34535.1000
947.0000;34504.2200
948.0000;34478.1300
949.0000;34479.4300
950.0000;34492.3600
951.0000;34500.7800
952.0000;34504.9100
953.0000;34523.0800
954.0000;34570.7100
955.0000;34636.2400
956.0000;34710.2900
957.0000;34780.2100
958.0000;34837.7100
959.0000;34896.2800
960.0000;34940.4700
961.0000;34971.5000
962.0000;35005.5900
963.0000;35029.3200
964.0000;35059.2500
965.0000;35105.1600
966.0000;35151.9500
967.0000;35203.2300
968.0000;35251.2000
969.0000;35273.5100
970.0000;35259.6600
971.0000;35216.5900
972.0000;35189.9400
973.0000;35207.0000
974.0000;35259.9900
975.0000;35347.0600
976.0000;35455.3100
977.0000;35550.6400
978.0000;35594.6900
979.0000;35588.2800
980.0000;35597.6500
981.0000;35669.7200
982.0000;35753.0000
983.0000;35811.7800
984.0000;35831.9500
985.0000;35838.6300
986.0000;35870.6300
987.0000;35909.4800
988.0000;35957.3600
989.0000;36011.6400
990.0000;36067.0000
991.0000;36130.9600
992.0000;36191.5800
993.0000;36248.8800
994.0000;36315.7600
995.0000;36373.0600
996.0000;36426.9900
997.0000;36478.7500
998.0000;36521.4500
999.0000;36575.7500
1000.0000;36635.3600
1001.0000;36689.1900
1002.0000;36755.9800
1003.0000;36804.9600
1004.0000;36824.3900
1005.0000;36806.6400
1006.0000;36761.8100
1007.0000;36728.0700
1008.0000;36712.3100
1009.0000;36707.2300
1010.0000;36695.6400
1011.0000;36700.4000
1012.0000;36738.5700
1013.0000;36822.9500
1014.0000;36909.2400
1015.0000;36958.1600
1016.0000;36953.2900
1017.0000;36937.7000
1018.0000;36959.6500
1019.0000;36994.2700
1020.0000;37034.0200
1021.0000;37074.1900
1022.0000;37102.4800
1023.0000;37112.1100
1024.0000;37100.9800
1025.0000;37104.5500
1026.0000;37161.3200
1027.0000;37238.4800
1028.0000;37296.7500
1029.0000;37313.3700
1030.0000;37318.1600
1031.0000;37356.5100
1032.0000;37414.1600
1033.0000;37468.5800
1034.0000;37508.3200
1035.0000;37532.0500
1036.0000;37563.2500
1037.0000;37603.2400
1038.0000;37638.8900
1039.0000;37682.9800
1040.0000;37714.2600
1041.0000;37719.1800
1042.0000;37688.2200
1043.0000;37638.5600
1044.0000;37600.7800
1045.0000;37588.3900
1046.0000;37597.9800
1047.0000;37621.2800
1048.0000;37661.1300
1049.0000;37701.3500
1050.0000;37726.4000
1051.0000;37754.9100
1052.0000;37815.0300
1053.0000;37901.2500
1054.0000;37983.2400
1055.0000;38057.4400
1056.0000;38097.0200
1057.0000;38113.2300
1058.0000;38103.0500
1059.0000;38079.5200
1060.0000;38079.7100
1061.0000;38103.0500
1062.0000;38141.3600
1063.0000;38196.0100
1064.0000;38249.1400
1065.0000;38281.3700
1066.0000;38279.0900
1067.0000;38277.6100
1068.0000;38327.1100
1069.0000;38407.2200
1070.0000;38484.1600
1071.0000;38536.8000
1072.0000;38566.3800
1073.0000;38596.5400
1074.0000;38622.2800
1075.0000;38657.0100
1076.0000;38733.6800
1077.0000;38822.6800
1078.0000;38902.9800
1079.0000;38959.3000
1080.0000;38986.7000
1081.0000;39004.2700
1082.0000;39007.0700
1083.0000;39030.7900
1084.0000;39126.0500
1085.0000;39239.0700
1086.0000;39322.8800
1087.0000;39348.4100
1088.0000;39340.5000
1089.0000;39349.6100
1090.0000;39358.7000
1091.0000;39366.9200
1092.0000;39377.3700
1093.0000;39386.6600
1094.0000;39400.9300
1095.0000;39417.5100
1096.0000;39425.0700
1097.0000;39411.4300
1098.0000;39387.6600
1099.0000;39378.8200
1100.0000;39397.2800
1101.0000;39433.5600
1102.0000;39476.0700
1103.0000;39521.0100
1104.0000;39562.9300
1105.0000;39601.5400
1106.0000;39631.5900
1107.0000;39669.3400
1108.0000;39710.5500
1109.0000;39764.3900
1110.0000;39864.3600
1111.0000;39976.3500
1112.0000;40051.9900
1113.0000;40060.9600
1114.0000;40039.2500
1115.0000;40077.2300
1116.0000;40164.9500
1117.0000;40232.9900
1118.0000;40225.0200
1119.0000;40172.7200
1120.0000;40162.3100
1121.0000;40224.6700
1122.0000;40299.0100
1123.0000;40328.1400
1124.0000;40314.5400
1125.0000;40293.4400
1126.0000;40291.6000
1127.0000;40292.0800
1128.0000;40291.1900
1129.0000;40288.5400
1130.0000;40282.6600
1131.0000;40285.9300
1132.0000;40276.0700
1133.0000;40212.5000
1134.0000;40065.0400
1135.0000;39955.8900
1136.0000;39996.1600
1137.0000;40172.8500
1138.0000;40341.7900
1139.0000;40395.7200
1140.0000;40377.9600
1141.0000;40362.9700
1142.0000;40356.1800
1143.0000;40360.6900
1144.0000;40403.3000
1145.0000;40462.6600
1146.0000;40508.6800
1147.0000;40518.9500
1148.0000;40515.9000
1149.0000;40540.2700
1150.0000;40577.8800
1151.0000;40597.1300
1152.0000;40572.9300
1153.0000;40537.6400
1154.0000;40541.1800
1155.0000;40592.3400
1156.0000;40650.3300
1157.0000;40675.6100
1158.0000;40677.1800
1159.0000;40680.0500
1160.0000;40691.7900
1161.0000;40712.7600
1162.0000;40761.7700
1163.0000;40822.9100
1164.0000;40870.3600
1165.0000;40883.2800
1166.0000;40869.8000
1167.0000;40861.6700
1168.0000;40861.9800
1169.0000;40872.4400
1170.0000;40899.9100
1171.0000;40938.5000
1172.0000;40975.4800
1173.0000;41000.8600
1174.0000;41025.9300
1175.0000;41070.6400
1176.0000;41122.1400
1177.0000;41167.1400
1178.0000;41197.8400
1179.0000;41213.9600
1180.0000;41236.4100
1181.0000;41258.8600
1182.0000;41279.2000
1183.0000;41298.7000
1184.0000;41317.0100
1185.0000;41350.8900
1186.0000;41400.8600
1187.0000;41458.7000
1188.0000;41535.8600
1189.0000;41608.6900
1190.0000;41665.9100
1191.0000;41699.3300
1192.0000;41716.0600
1193.0000;41760.1300
1194.0000;41819.8400
1195.0000;41871.8600
1196.0000;41902.2000
1197.0000;41919.4200
1198.0000;41971.2000
1199.0000;42056.0200
1200.0000;42116.2900
1201.0000;42111.9600
1202.0000;42057.9600
1203.0000;42025.9800
1204.0000;42048.4900
1205.0000;42087.9000
1206.0000;42108.5900
1207.0000;42117.7100
1208.0000;42136.0200
1209.0000;42174.7300
1210.0000;42221.5400
1211.0000;42275.7100
1212.0000;42328.3300
1213.0000;42366.6200
1214.0000;42396.2800
1215.0000;42398.6400
1216.0000;42382.7200
1217.0000;42349.7000
1218.0000;42333.0900
1219.0000;42377.0700
1220.0000;42460.6600
1221.0000;42534.1300
1222.0000;42569.1400
1223.0000;42582.1300
1224.0000;42606.3800
1225.0000;42626.5900
1226.0000;42640.4100
1227.0000;42649.4500
1228.0000;42653.9000
1229.0000;42666.4300
1230.0000;42686.7200
1231.0000;42716.2100
1232.0000;42759.5700
1233.0000;42806.3200
1234.0000;42855.7100
1235.0000;42899.1100
1236.0000;42931.8800
1237.0000;42968.7900
1238.0000;42988.8900
1239.0000;42995.9300
1240.0000;42988.4400
1241.0000;42970.0700
1242.0000;42958.3300
1243.0000;42950.4300
1244.0000;42938.7200
1245.0000;42916.1600
1246.0000;42902.2800
1247.0000;42913.0500
1248.0000;42948.7300
1249.0000;42983.8000
1250.0000;43000.1400
1251.0000;42999.4200
1252.0000;42986.4500
1253.0000;42963.0700
1254.0000;42959.4500
1255.0000;43004.3100
1256.0000;43081.7700
1257.0000;43164.5700
1258.0000;43235.4700
1259.0000;43296.2600
1260.0000;43365.2800
1261.0000;43418.2900
1262.0000;43470.1400
1263.0000;43525.4600
1264.0000;43561.3900
1265.0000;43581.6000
1266.0000;43578.9800
1267.0000;43581.9600
1268.0000;43614.1100
1269.0000;43648.2100
1270.0000;43668.1500
1271.0000;43667.8000
1272.0000;43661.7400
1273.0000;43657.2800
1274.0000;43662.4900
1275.0000;43694.1600
1276.0000;43755.6200
1277.0000;43826.4000
1278.0000;43904.9300
1279.0000;43966.2100
1280.0000;44005.8900
1281.0000;44009.3600
1282.0000;44004.3900
1283.0000;44044.9500
1284.0000;44098.6700
1285.0000;44126.3600
1286.0000;44109.6000
1287.0000;44078.8000
1288.0000;44070.3600
1289.0000;44084.8200
1290.0000;44118.1300
1291.0000;44167.3400
1292.0000;44230.1300
1293.0000;44306.5300
1294.0000;44377.3200
1295.0000;44422.4500
1296.0000;44424.9300
1297.0000;44400.9300
1298.0000;44405.6000
1299.0000;44437.7600
1300.0000;44469.9100
1301.0000;44479.7500
1302.0000;44485.5600
1303.0000;44522.7500
1304.0000;44588.2000
1305.0000;44644.9500
1306.0000;44665.1600
1307.0000;44658.3900
1308.0000;44669.6100
1309.0000;44708.5500
1310.0000;44756.8000
1311.0000;44817.5600
1312.0000;44869.9500
1313.0000;44908.4900
1314.0000;44920.4000
1315.0000;44924.1500
1316.0000;44962.1100
1317.0000;45007.4000
1318.0000;45035.4200
1319.0000;45030.4500
1320.0000;45003.6100
1321.0000;44971.3700
1322.0000;44942.7700
1323.0000;44946.5500
1324.0000;45003.2900
1325.0000;45074.9800
1326.0000;45119.7500
1327.0000;45128.8600
1328.0000;45130.4800
1329.0000;45139.8500
1330.0000;45152.0700
1331.0000;45178.4900
1332.0000;45217.6000
1333.0000;45263.0700
1334.0000;45319.7100
1335.0000;45366.2500
1336.0000;45398.6400
1337.0000;45407.7800
1338.0000;45408.0700
1339.0000;45414.7100
1340.0000;45427.4100
1341.0000;45467.9800
1342.0000;45533.8500
1343.0000;45592.0000
1344.0000;45620.8200
1345.0000;45628.3000
1346.0000;45665.4600
1347.0000;45734.3000
1348.0000;45779.2300
1349.0000;45776.6300
1350.0000;45722.7100
1351.0000;45652.1200
1352.0000;45574.6100
1353.0000;45517.4500
1354.0000;45502.5200
1355.0000;45526.8700
1356.0000;45535.9100
1357.0000;45513.3900
1358.0000;45488.5700
1359.0000;45472.9600
1360.0000;45477.0000
1361.0000;45505.1400
1362.0000;45560.8100
1363.0000;45630.5500
1364.0000;45699.9200
1365.0000;45759.8900
1366.0000;45819.2600
1367.0000;45875.3500
1368.0000;45912.9500
1369.0000;45948.5500
1370.0000;45966.2500
1371.0000;45983.7800
1372.0000;46006.7100
1373.0000;46033.0300
1374.0000;46082.1600
1375.0000;46137.1300
1376.0000;46181.7100
1377.0000;46204.9900
1378.0000;46207.8400
1379.0000;46206.9600
1380.0000;46200.8700
1381.0000;46211.9500
1382.0000;46256.1700
1383.0000;46301.8400
1384.0000;46318.1300
1385.0000;46306.7300
1386.0000;46300.6300
1387.0000;46314.8200
1388.0000;46352.6800
1389.0000;46427.8000
1390.0000;46525.4300
1391.0000;46617.8300
1392.0000;46689.1600
1393.0000;46719.0700
1394.0000;46721.8900
1395.0000;46687.8300
1396.0000;46659.4100
1397.0000;46668.1300
1398.0000;46693.1700
1399.0000;46712.5000
1400.0000;46729.6600
1401.0000;46761.6200
1402.0000;46818.7100
1403.0000;46875.7600
1404.0000;46916.5000
1405.0000;46932.2400
1406.0000;46949.0700
1407.0000;46985.5200
1408.0000;47017.6500
1409.0000;47034.1900
1410.0000;47036.5700
1411.0000;47059.9100
1412.0000;47123.0200
1413.0000;47209.3200
1414.0000;47320.0700
1415.0000;47427.8300
1416.0000;47507.8600
1417.0000;47544.7000
1418.0000;47538.7800
1419.0000;47549.4900
1420.0000;47556.6000
1421.0000;47533.7500
1422.0000;47463.4700
1423.0000;47403.3500
1424.0000;47419.4700
1425.0000;47504.8900
1426.0000;47582.0000
1427.0000;47600.6100
1428.0000;47598.0300
1429.0000;47621.0300
1430.0000;47657.3400
1431.0000;47698.2000
1432.0000;47737.6300
1433.0000;47776.6400
1434.0000;47827.5500
1435.0000;47879.6200
1436.0000;47943.5400
1437.0000;48020.4100
1438.0000;48077.9800
1439.0000;48114.8500
1440.0000;48110.5200
1441.0000;48083.0300
1442.0000;48044.6300
1443.0000;47992.6100
1444.0000;47926.7500
1445.0000;47870.4600
1446.0000;47851.3200
1447.0000;47884.0600
1448.0000;47941.8400
1449.0000;47982.2100
1450.0000;48003.8600
1451.0000;48014.7900
1452.0000;48011.9500
1453.0000;48015.5500
1454.0000;48055.2500
1455.0000;48117.2700
1456.0000;48185.2500
1457.0000;48242.1600
1458.0000;48290.3500
1459.0000;48362.2700
1460.0000;48407.7500
1461.0000;48394.5200
1462.0000;48304.9100
1463.0000;48249.7900
1464.0000;48354.9500
1465.0000;48531.0000
1466.0000;48618.0700
1467.0000;48569.0000
1468.0000;48456.8000
1469.0000;48355.2200
1470.0000;48267.7900
1471.0000;48223.3100
1472.0000;48244.5100
1473.0000;48285.7700
1474.0000;48288.1500
1475.0000;48285.0200
1476.0000;48293.5300
1477.0000;48315.0700
1478.0000;48347.4000
1479.0000;48382.9500
1480.0000;48428.8900
1481.0000;48503.7900
1482.0000;48592.9100
1483.0000;48652.5900
1484.0000;48656.4500
1485.0000;48633.8400
1486.0000;48661.6600
1487.0000;48723.1100
1488.0000;48768.8400
1489.0000;48764.8800
1490.0000;48747.3500
1491.0000;48770.8400
1492.0000;48821.6100
1493.0000;48861.2000
1494.0000;48867.2200
1495.0000;48879.2100
1496.0000;48957.9100
1497.0000;49063.1200
1498.0000;49139.5100
1499.0000;49149.9100
1500.0000;49123.5000
1501.0000;49105.7000
1502.0000;49089.4800
1503.0000;49092.4400
1504.0000;49122.8800
1505.0000;49156.8300
1506.0000;49177.3200
1507.0000;49182.0800
1508.0000;49174.2400
1509.0000;49155.2500
1510.0000;49161.5100
1511.0000;49230.0500
1512.0000;49325.5800
1513.0000;49393.2500
1514.0000;49423.0500
1515.0000;49471.3700
1516.0000;49585.2600
1517.0000;49709.9000
1518.0000;49812.9700
1519.0000;49868.6400
1520.0000;49915.8200
1521.0000;49977.7900
1522.0000;50028.3900
1523.0000;50090.5300
1524.0000;50145.4100
1525.0000;50193.0500
1526.0000;50230.9800
1527.0000;50252.1900
1528.0000;50278.0900
1529.0000;50295.2100
1530.0000;50317.9500
1531.0000;50347.5200
1532.0000;50363.0200
1533.0000;50348.9000
1534.0000;50317.9400
1535.0000;50312.2400
1536.0000;50340.0500
1537.0000;50364.4800
1538.0000;50348.7300
1539.0000;50319.1600
1540.0000;50308.9600
1541.0000;50325.0500
1542.0000;50357.1600
1543.0000;50406.7700
1544.0000;50447.8600
1545.0000;50453.8500
1546.0000;50420.0300
1547.0000;50380.2800
1548.0000;50352.9100
1549.0000;50345.6000
1550.0000;50360.0700
1551.0000;50402.3600
1552.0000;50467.2500
1553.0000;50546.4800
1554.0000;50615.8200
1555.0000;50659.3900
1556.0000;50673.1300
1557.0000;50707.3100
1558.0000;50764.9500
1559.0000;50807.0700
1560.0000;50826.4200
1561.0000;50806.5700
1562.0000;50755.9100
1563.0000;50682.4200
1564.0000;50633.0800
1565.0000;50648.9000
1566.0000;50688.7100
1567.0000;50672.5400
1568.0000;50621.5200
1569.0000;50611.7800
1570.0000;50684.3200
1571.0000;50774.8400
1572.0000;50815.6400
1573.0000;50813.3500
1574.0000;50820.8600
1575.0000;50851.7700
1576.0000;50869.4600
1577.0000;50848.4100
1578.0000;50811.5800
1579.0000;50809.2300
1580.0000;50850.7500
1581.0000;50895.6500
1582.0000;50914.3400
1583.0000;50918.2100
1584.0000;50930.6300
1585.0000;50943.5900
1586.0000;50943.9300
1587.0000;50926.0000
1588.0000;50897.5800
1589.0000;50876.0000
1590.0000;50859.8800
1591.0000;50833.2000
1592.0000;50792.3400
1593.0000;50776.8700
1594.0000;50820.2000
1595.0000;50895.5000
1596.0000;50944.7500
1597.0000;50948.6600
1598.0000;50934.4500
1599.0000;50920.7000
1600.0000;50913.7000
1601.0000;50940.7400
1602.0000;50996.4400
1603.0000;51045.3900
1604.0000;51062.4500
1605.0000;51059.3600
1606.0000;51063.6700
1607.0000;51061.6300
1608.0000;51043.8200
1609.0000;51008.2600
1610.0000;50983.9600
1611.0000;50991.6600
1612.0000;51031.0000
1613.0000;51082.0500
1614.0000;51140.0500
1615.0000;51207.7700
1616.0000;51295.6500
1617.0000;51367.5000
1618.0000;51408.1100
1619.0000;51406.7500
1620.0000;51410.7800
1621.0000;51447.2400
1622.0000;51469.6500
1623.0000;51436.8400
1624.0000;51382.0800
1625.0000;51383.4100
1626.0000;51462.9200
1627.0000;51547.8100
1628.0000;51583.8000
1629.0000;51577.8200
1630.0000;51562.1200
1631.0000;51536.0500
1632.0000;51512.1600
1633.0000;51505.9300
1634.0000;51506.1100
1635.0000;51496.6800
1636.0000;51483.6200
1637.0000;51469.3400
1638.0000;51456.8600
1639.0000;51452.5700
1640.0000;51459.3400
1641.0000;51474.7700
1642.0000;51480.0900
1643.0000;51476.3200
1644.0000;51492.5200
1645.0000;51550.1500
1646.0000;51618.1900
1647.0000;51676.9900
1648.0000;51708.7700
1649.0000;51728.5400
1650.0000;51737.8000
1651.0000;51716.5500
1652.0000;51661.0300
1653.0000;51588.9600
1654.0000;51528.7300
1655.0000;51502.1700
1656.0000;51504.6900
1657.0000;51532.0400
1658.0000;51570.1100
1659.0000;51581.5000
1660.0000;51564.0500
1661.0000;51539.2200
1662.0000;51513.6400
1663.0000;51505.5400
1664.0000;51541.4300
1665.0000;51594.5100
1666.0000;51607.2800
1667.0000;51565.7900
1668.0000;51515.0900
1669.0000;51496.0700
1670.0000;51480.0600
1671.0000;51429.1800
1672.0000;51362.5100
1673.0000;51314.8800
1674.0000;51302.9300
1675.0000;51318.7200
1676.0000;51327.1500
1677.0000;51349.8500
1678.0000;51397.8500
1679.0000;51464.5900
1680.0000;51514.8900
1681.0000;51536.5800
1682.0000;51514.3300
1683.0000;51459.8500
1684.0000;51382.5700
1685.0000;51315.4100
1686.0000;51284.9600
1687.0000;51279.8500
1688.0000;51269.7000
1689.0000;51272.1600
1690.0000;51276.1600
1691.0000;51280.8800
1692.0000;51281.9500
1693.0000;51267.2300
1694.0000;51268.4600
1695.0000;51317.3200
1696.0000;51400.7400
1697.0000;51498.5500
1698.0000;51589.7400
1699.0000;51617.2000
1700.0000;51548.4800
1701.0000;51414.6600
1702.0000;51315.9500
1703.0000;51276.7200
1704.0000;51261.0600
1705.0000;51253.4400
1706.0000;51260.3200
1707.0000;51256.8700
1708.0000;51246.3500
1709.0000;51217.9600
1710.0000;51172.9300
1711.0000;51146.4100
1712.0000;51164.4000
1713.0000;51206.8500
1714.0000;51230.3800
1715.0000;51233.9300
1716.0000;51237.6800
1717.0000;51248.1200
1718.0000;51261.1100
1719.0000;51281.6600
1720.0000;51301.4800
1721.0000;51314.2700
1722.0000;51317.3500
1723.0000;51328.6500
1724.0000;51362.9100
1725.0000;51399.1200
1726.0000;51423.4800
1727.0000;51431.0300
1728.0000;51438.7500
1729.0000;51448.7600
1730.0000;51449.5000
1731.0000;51443.9100
1732.0000;51421.9800
1733.0000;51380.9100
1734.0000;51325.6500
1735.0000;51263.3900
1736.0000;51200.2700
1737.0000;51165.1100
1738.0000;51156.2100
1739.0000;51195.1100
1740.0000;51271.0100
1741.0000;51372.0000
1742.0000;51451.6800
1743.0000;51478.0500
1744.0000;51456.9900
1745.0000;51427.4300
1746.0000;51392.9800
1747.0000;51394.5300
1748.0000;51447.9700
1749.0000;51491.6500
1750.0000;51483.9200
1751.0000;51437.7600
1752.0000;51367.0100
1753.0000;51297.6700
1754.0000;51271.3200
1755.0000;51310.1400
1756.0000;51425.7300
1757.0000;51646.8400
1758.0000;51847.6300
1759.0000;51865.4100
1760.0000;51665.8500
1761.0000;51479.2000
1762.0000;51440.1300
1763.0000;51469.7300
1764.0000;51482.2800
1765.0000;51500.5200
1766.0000;51505.2200
1767.0000;51488.7400
1768.0000;51454.1100
1769.0000;51401.8200
1770.0000;51347.6700
1771.0000;51289.5200
1772.0000;51256.6000
1773.0000;51262.5500
1774.0000;51317.7100
1775.0000;51376.9900
1776.0000;51400.3100
1777.0000;51397.8800
1778.0000;51396.1500
1779.0000;51387.3200
1780.0000;51368.7600
1781.0000;51340.8900
1782.0000;51320.4000
1783.0000;51324.7900
1784.0000;51336.1600
1785.0000;51320.1200
1786.0000;51276.3400
1787.0000;51226.7800
1788.0000;51181.9500
1789.0000;51145.6200
1790.0000;51101.1800
1791.0000;51074.8200
1792.0000;51066.7800
1793.0000;51081.8300
1794.0000;51089.7100
1795.0000;51070.3700
1796.0000;51043.7100
1797.0000;51018.1600
1798.0000;51004.4500
1799.0000;51007.3700
1800.0000;51030.2600
1801.0000;51061.7300
1802.0000;51097.8300
1803.0000;51103.4300
1804.0000;51046.9800
1805.0000;50947.8300
1806.0000;50856.8100
1807.0000;50803.6800
1808.0000;50771.3700
1809.0000;50738.7200
1810.0000;50731.1900
1811.0000;50739.0600
1812.0000;50757.6700
1813.0000;50747.8700
1814.0000;50698.9400
1815.0000;50644.5700
1816.0000;50604.7300
1817.0000;50588.6500
1818.0000;50586.9900
1819.0000;50609.1800
1820.0000;50642.3300
1821.0000;50680.3000
1822.0000;50700.2200
1823.0000;50683.9000
1824.0000;50648.2200
1825.0000;50623.7900
1826.0000;50615.8400
1827.0000;50624.2400
1828.0000;50649.1500
1829.0000;50656.5400
1830.0000;50610.5100
1831.0000;50546.4700
1832.0000;50503.2000
1833.0000;50493.8900
1834.0000;50515.2100
1835.0000;50567.3900
1836.0000;50625.7500
1837.0000;50670.3200
1838.0000;50683.9500
1839.0000;50666.0000
1840.0000;50615.6600
1841.0000;50574.3300
1842.0000;50561.8800
1843.0000;50542.0600
1844.0000;50467.3800
1845.0000;50411.1400
1846.0000;50439.7700
1847.0000;50541.7300
1848.0000;50615.6300
1849.0000;50617.7000
1850.0000;50606.6000
1851.0000;50628.8600
1852.0000;50666.1900
1853.0000;50732.8500
1854.0000;50800.5000
1855.0000;50818.0600
1856.0000;50763.5700
1857.0000;50711.6400
1858.0000;50732.6900
1859.0000;50780.6500
1860.0000;50801.3200
1861.0000;50799.6700
1862.0000;50801.8400
1863.0000;50812.7400
1864.0000;50827.3800
1865.0000;50842.7300
1866.0000;50864.6900
1867.0000;50909.7800
1868.0000;50959.1900
1869.0000;50988.4400
1870.0000;50984.0700
1871.0000;50964.6600
1872.0000;50944.6600
1873.0000;50935.8900
1874.0000;50963.4900
1875.0000;51014.9500
1876.0000;51044.9900
1877.0000;51042.5300
1878.0000;51043.4000
1879.0000;51071.2500
1880.0000;51105.1600
1881.0000;51140.6800
1882.0000;51162.2400
1883.0000;51159.2500
1884.0000;51129.5800
1885.0000;51111.9000
1886.0000;51135.6400
1887.0000;51155.8100
1888.0000;51114.7700
1889.0000;51057.4800
1890.0000;51063.8100
1891.0000;51138.5900
1892.0000;51215.2700
1893.0000;51256.3100
1894.0000;51275.6300
1895.0000;51308.6500
1896.0000;51317.0500
1897.0000;51277.3500
1898.0000;51209.0400
1899.0000;51201.8400
1900.0000;51297.5900
1901.0000;51403.1700
1902.0000;51425.7700
1903.0000;51406.4700
1904.0000;51425.3800
1905.0000;51456.2000
1906.0000;51445.6600
1907.0000;51377.4600
1908.0000;51323.6700
1909.0000;51334.0700
1910.0000;51382.7000
1911.0000;51422.5800
1912.0000;51454.4400
1913.0000;51478.5800
1914.0000;51488.4300
1915.0000;51503.2300
1916.0000;51537.0500
1917.0000;51579.3400
1918.0000;51636.6300
1919.0000;51689.8600
1920.0000;51745.4100
1921.0000;51782.2900
1922.0000;51787.3600
1923.0000;51752.1400
1924.0000;51704.6800
1925.0000;51684.0200
1926.0000;51682.1300
1927.0000;51673.9500
1928.0000;51670.1400
1929.0000;51685.7700
1930.0000;51723.9500
1931.0000;51785.0100
1932.0000;51870.4500
1933.0000;51943.0000
1934.0000;51975.3400
1935.0000;51957.2300
1936.0000;51931.7400
1937.0000;51909.2900
1938.0000;51907.0300
1939.0000;51939.7600
1940.0000;51996.0900
1941.0000;52050.2600
1942.0000;52109.6200
1943.0000;52199.1800
1944.0000;52302.0100
1945.0000;52379.1300
1946.0000;52409.8200
1947.0000;52421.9400
1948.0000;52475.2900
1949.0000;52529.7800
1950.0000;52585.0500
1951.0000;52615.4900
1952.0000;52608.6600
1953.0000;52556.4500
1954.0000;52501.4300
1955.0000;52480.9800
1956.0000;52475.1300
1957.0000;52448.5200
1958.0000;52421.9100
1959.0000;52405.4000
1960.0000;52410.2800
1961.0000;52451.1300
1962.0000;52535.2800
1963.0000;52604.6000
1964.0000;52601.4900
1965.0000;52560.8500
1966.0000;52569.9100
1967.0000;52619.2600
1968.0000;52660.0200
1969.0000;52676.6800
1970.0000;52703.0600
1971.0000;52766.2500
1972.0000;52831.2300
1973.0000;52882.7500
1974.0000;52907.9100
1975.0000;52922.4100
1976.0000;52923.5500
1977.0000;52937.5900
1978.0000;52980.2200
1979.0000;53021.8000
1980.0000;53044.9700
1981.0000;53056.2400
1982.0000;53093.6300
1983.0000;53136.7700
1984.0000;53149.4900
1985.0000;53119.6900
1986.0000;53094.8900
1987.0000;53106.4800
1988.0000;53146.9500
1989.0000;53218.6600
1990.0000;53296.2000
1991.0000;53343.5800
1992.0000;53347.2100
1993.0000;53354.9600
1994.0000;53385.7600
1995.0000;53417.0300
1996.0000;53448.5300
1997.0000;53463.0400
1998.0000;53455.2100
1999.0000;53429.6200
2000.0000;53423.1200
2001.0000;53441.7900
2002.0000;53454.0200
2003.0000;53444.4200
2004.0000;53416.9900
2005.0000;53360.4500
2006.0000;53317.8500
2007.0000;53345.5700
2008.0000;53432.5900
2009.0000;53493.4100
2010.0000;53492.4800
2011.0000;53458.6000
2012.0000;53405.7700
2013.0000;53369.2000
2014.0000;53400.2200
2015.0000;53471.8900
2016.0000;53507.3200
2017.0000;53505.2500
2018.0000;53537.2100
2019.0000;53627.6100
2020.0000;53696.1500
2021.0000;53695.9300
2022.0000;53658.0500
2023.0000;53656.4400
2024.0000;53661.9500
2025.0000;53628.1900
2026.0000;53561.1400
2027.0000;53512.5900
2028.0000;53510.9800
2029.0000;53524.5200
2030.0000;53509.5800
2031.0000;53501.2000
2032.0000;53534.3000
2033.0000;53579.1600
2034.0000;53558.9000
2035.0000;53466.1400
2036.0000;53377.8800
2037.0000;53339.8600
2038.0000;53331.6600
2039.0000;53309.5700
2040.0000;53313.3600
2041.0000;53352.3400
2042.0000;53414.0500
2043.0000;53459.3300
2044.0000;53466.5400
2045.0000;53444.2700
2046.0000;53394.5400
2047.0000;53352.4000
2048.0000;53345.6100
2049.0000;53382.1900
2050.0000;53450.4500
2051.0000;53535.4300
2052.0000;53596.6100
2053.0000;53611.4200
2054.0000;53584.7900
2055.0000;53520.5200
2056.0000;53475.6000
2057.0000;53521.0700
2058.0000;53615.3000
2059.0000;53694.4900
2060.0000;53731.7300
2061.0000;53722.8100
2062.0000;53661.5900
2063.0000;53595.7400
2064.0000;53564.6000
2065.0000;53565.6000
2066.0000;53594.1400
2067.0000;53637.2300
2068.0000;53635.4800
2069.0000;53611.5400
2070.0000;53654.7800
2071.0000;53772.9500
2072.0000;53845.8900
2073.0000;53808.9800
2074.0000;53725.0700
2075.0000;53677.1200
2076.0000;53639.5900
2077.0000;53595.3100
2078.0000;53556.1700
2079.0000;53507.9900
2080.0000;53463.0200
2081.0000;53439.6700
2082.0000;53447.8400
2083.0000;53479.3000
2084.0000;53517.8000
2085.0000;53543.8000
2086.0000;53517.8700
2087.0000;53470.6600
2088.0000;53496.5100
2089.0000;53601.1000
2090.0000;53686.3200
2091.0000;53701.1900
2092.0000;53693.2000
2093.0000;53712.9800
2094.0000;53721.6700
2095.0000;53693.1100
2096.0000;53661.2600
2097.0000;53701.7300
2098.0000;53808.3900
2099.0000;53910.3000
2100.0000;53964.0400
2101.0000;53979.7800
2102.0000;53974.1500
2103.0000;53936.9600
2104.0000;53885.8000
2105.0000;53840.0700
2106.0000;53835.5600
2107.0000;53869.5600
2108.0000;53883.1200
2109.0000;53857.9600
2110.0000;53805.3800
2111.0000;53731.0600
2112.0000;53664.0000
2113.0000;53621.8600
2114.0000;53613.1800
2115.0000;53594.7700
2116.0000;53590.3500
2117.0000;53621.5000
2118.0000;53686.7800
2119.0000;53741.8100
2120.0000;53758.3000
2121.0000;53763.2500
2122.0000;53786.8000
2123.0000;53810.1700
2124.0000;53834.2100
2125.0000;53853.5200
2126.0000;53884.9700
2127.0000;53911.8500
2128.0000;53899.8500
2129.0000;53836.2700
2130.0000;53774.8600
2131.0000;53759.6100
2132.0000;53760.3000
2133.0000;53733.0900
2134.0000;53700.9400
2135.0000;53673.5400
2136.0000;53656.7900
2137.0000;53636.3500
2138.0000;53618.6000
2139.0000;53623.8400
2140.0000;53660.2800
2141.0000;53698.9600
2142.0000;53713.8900
2143.0000;53708.6800
2144.0000;53700.5800
2145.0000;53682.4500
2146.0000;53654.1600
2147.0000;53623.5900
2148.0000;53611.4600
2149.0000;53624.1600
2150.0000;53620.8700
2151.0000;53574.0000
2152.0000;53521.0000
2153.0000;53484.8500
2154.0000;53476.6100
2155.0000;53486.6800
2156.0000;53516.1900
2157.0000;53536.4100
2158.0000;53544.3300
2159.0000;53576.1200
2160.0000;53638.9500
2161.0000;53657.7100
2162.0000;53574.2200
2163.0000;53484.1100
2164.0000;53509.8600
2165.0000;53593.9600
2166.0000;53635.7700
2167.0000;53628.6300
2168.0000;53602.7500
2169.0000;53560.7200
2170.0000;53506.7800
2171.0000;53455.2900
2172.0000;53399.8200
2173.0000;53327.8300
2174.0000;53272.1700
2175.0000;53230.2300
2176.0000;53213.8500
2177.0000;53183.7300
2178.0000;53157.4700
2179.0000;53153.7200
2180.0000;53177.8300
2181.0000;53196.5000
2182.0000;53187.2300
2183.0000;53196.3100
2184.0000;53268.9900
2185.0000;53337.7000
2186.0000;53340.3200
2187.0000;53294.1900
2188.0000;53269.8000
2189.0000;53266.8800
2190.0000;53257.4800
2191.0000;53241.6600
2192.0000;53249.6100
2193.0000;53296.2900
2194.0000;53327.9000
2195.0000;53295.6200
2196.0000;53249.7300
2197.0000;53261.6400
2198.0000;53295.4600
2199.0000;53283.8800
2200.0000;53233.0900
2201.0000;53191.2600
2202.0000;53172.7700
2203.0000;53134.2100
2204.0000;53057.4800
2205.0000;53001.2100
2206.0000;53001.2500
2207.0000;53020.5100
2208.0000;52984.2300
2209.0000;52931.6400
2210.0000;52900.4300
2211.0000;52902.7500
2212.0000;52931.9000
2213.0000;52981.7700
2214.0000;53021.2800
2215.0000;53027.7900
2216.0000;53025.9500
2217.0000;53041.7100
2218.0000;53041.5500
2219.0000;53007.7900
2220.0000;52953.8000
2221.0000;52896.2100
2222.0000;52864.1900
2223.0000;52885.4100
2224.0000;52962.1100
2225.0000;53028.5600
2226.0000;53050.7700
2227.0000;53036.1600
2228.0000;52986.7200
2229.0000;52935.6100
2230.0000;52925.3600
2231.0000;52943.8200
2232.0000;52969.6800
2233.0000;52986.1100
2234.0000;52953.5500
2235.0000;52878.5200
2236.0000;52813.8200
2237.0000;52779.5800
2238.0000;52757.0200
2239.0000;52740.3400
2240.0000;52716.9600
2241.0000;52661.7000
2242.0000;52611.5500
2243.0000;52573.8600
2244.0000;52573.8700
2245.0000;52608.1900
2246.0000;52671.4600
2247.0000;52724.7500
2248.0000;52752.4300
2249.0000;52775.7300
2250.0000;52794.7900
2251.0000;52794.7400
2252.0000;52772.6500
2253.0000;52747.8700
2254.0000;52742.8500
2255.0000;52754.6800
2256.0000;52776.3900
2257.0000;52801.6100
2258.0000;52820.1500
2259.0000;52820.9500
2260.0000;52795.7700
2261.0000;52749.5900
2262.0000;52724.6900
2263.0000;52742.5400
2264.0000;52776.0200
2265.0000;52805.2100
2266.0000;52821.2100
2267.0000;52812.6900
2268.0000;52790.7000
2269.0000;52789.1800
2270.0000;52794.6400
2271.0000;52777.0900
2272.0000;52743.4100
2273.0000;52732.3100
2274.0000;52746.5700
2275.0000;52723.0900
2276.0000;52637.6700
2277.0000;52570.6900
2278.0000;52578.8600
2279.0000;52610.0400
2280.0000;52595.2900
2281.0000;52559.0300
2282.0000;52510.5800
2283.0000;52465.2100
2284.0000;52431.5600
2285.0000;52428.2500
2286.0000;52453.8600
2287.0000;52504.9800
2288.0000;52545.5900
2289.0000;52551.2300
2290.0000;52546.9300
2291.0000;52551.9600
2292.0000;52551.2000
2293.0000;52535.2300
2294.0000;52527.2500
2295.0000;52563.1400
2296.0000;52611.9800
2297.0000;52622.6600
2298.0000;52589.9300
2299.0000;52542.0300
2300.0000;52496.8800
2301.0000;52500.4300
2302.0000;52570.8900
2303.0000;52642.1300
2304.0000;52671.0600
2305.0000;52654.1900
2306.0000;52593.8300
2307.0000;52522.0200
2308.0000;52483.3200
2309.0000;52483.9800
2310.0000;52505.2500
2311.0000;52537.3400
2312.0000;52522.4500
2313.0000;52469.9600
2314.0000;52470.2300
2315.0000;52539.8200
2316.0000;52588.5900
2317.0000;52568.7100
2318.0000;52501.2100
2319.0000;52404.5900
2320.0000;52317.4300
2321.0000;52277.3500
2322.0000;52289.9000
2323.0000;52311.2500
2324.0000;52341.5100
2325.0000;52346.8600
2326.0000;52331.3800
2327.0000;52331.3800
2328.0000;52349.0500
2329.0000;52360.0000
2330.0000;52355.9800
2331.0000;52357.1400
2332.0000;52372.2200
2333.0000;52402.5600
2334.0000;52450.4700
2335.0000;52503.4000
2336.0000;52557.4100
2337.0000;52597.9200
2338.0000;52631.1600
2339.0000;52652.2100
2340.0000;52709.7300
2341.0000;52767.9500
2342.0000;52756.9300
2343.0000;52667.7400
2344.0000;52591.8300
2345.0000;52569.5900
2346.0000;52555.3400
2347.0000;52530.6900
2348.0000;52487.7500
2349.0000;52399.3700
2350.0000;52344.2000
2351.0000;52398.3600
2352.0000;52488.3900
2353.0000;52474.0700
2354.0000;52407.1200
2355.0000;52394.3000
2356.0000;52430.4600
2357.0000;52460.9200
2358.0000;52470.6300
2359.0000;52447.4600
2360.0000;52390.1600
2361.0000;52359.7100
2362.0000;52390.7500
2363.0000;52415.7900
2364.0000;52381.7300
2365.0000;52350.5700
2366.0000;52372.4500
2367.0000;52416.5100
2368.0000;52444.0100
2369.0000;52463.1400
2370.0000;52496.9200
2371.0000;52531.9800
2372.0000;52569.5700
2373.0000;52590.7300
2374.0000;52568.8800
2375.0000;52508.2100
2376.0000;52494.4000
2377.0000;52559.6100
2378.0000;52609.0900
2379.0000;52588.5300
2380.0000;52546.0500
2381.0000;52517.5400
2382.0000;52501.0100
2383.0000;52495.8800
2384.0000;52507.3700
2385.0000;52528.3400
2386.0000;52544.1400
2387.0000;52518.5100
2388.0000;52476.6400
2389.0000;52508.7600
2390.0000;52589.4500
2391.0000;52551.4000
2392.0000;52382.1500
2393.0000;52262.3900
2394.0000;52270.5600
2395.0000;52304.4000
2396.0000;52308.4300
2397.0000;52296.5400
2398.0000;52255.5800
2399.0000;52218.4000
2400.0000;52217.4200
2401.0000;52225.8400
2402.0000;52188.3500
2403.0000;52146.9600
2404.0000;52159.3200
2405.0000;52207.8500
2406.0000;52231.7200
2407.0000;52223.0200
2408.0000;52198.9500
2409.0000;52168.7900
2410.0000;52165.9800
2411.0000;52202.8400
2412.0000;52235.0900
2413.0000;52240.5000
2414.0000;52240.6400
2415.0000;52247.2000
2416.0000;52262.8400
2417.0000;52298.8900
2418.0000;52329.6000
2419.0000;52329.9100
2420.0000;52317.0900
2421.0000;52332.3800
2422.0000;52357.7600
2423.0000;52372.6100
2424.0000;52371.2700
2425.0000;52367.4400
2426.0000;52351.0700
2427.0000;52298.2800
2428.0000;52215.1400
2429.0000;52147.9300
2430.0000;52119.2900
2431.0000;52093.0200
2432.0000;52055.2400
2433.0000;52066.1700
2434.0000;52155.4300
2435.0000;52227.1400
2436.0000;52189.9800
2437.0000;52112.8000
2438.0000;52076.4100
2439.0000;52080.0200
2440.0000;52128.4600
2441.0000;52193.3900
2442.0000;52197.9800
2443.0000;52164.1700
2444.0000;52186.0200
2445.0000;52238.3100
2446.0000;52229.1500
2447.0000;52149.3800
2448.0000;52048.6100
2449.0000;51960.4000
2450.0000;51893.8200
2451.0000;51869.8900
2452.0000;51863.7100
2453.0000;51854.5100
2454.0000;51868.5700
2455.0000;51910.2900
2456.0000;51952.8600
2457.0000;51972.3700
2458.0000;51964.0000
2459.0000;51946.1200
2460.0000;51900.1000
2461.0000;51819.9600
2462.0000;51736.6800
2463.0000;51679.8100
2464.0000;51672.0300
2465.0000;51693.8300
2466.0000;51733.6500
2467.0000;51717.9200
2468.0000;51657.3700
2469.0000;51646.4300
2470.0000;51706.5200
2471.0000;51764.4500
2472.0000;51792.2900
2473.0000;51831.0500
2474.0000;51888.2000
2475.0000;51920.6000
2476.0000;51902.7600
2477.0000;51889.7800
2478.0000;51937.7500
2479.0000;51978.1300
2480.0000;51956.7600
2481.0000;51915.5800
2482.0000;51918.1000
2483.0000;51929.9300
2484.0000;51903.3200
2485.0000;51866.1800
2486.0000;51853.5800
2487.0000;51869.8000
2488.0000;51900.4800
2489.0000;51936.1800
2490.0000;51960.5000
2491.0000;51956.7500
2492.0000;51918.1500
2493.0000;51846.9300
2494.0000;51767.0300
2495.0000;51699.6500
2496.0000;51637.8800
2497.0000;51589.7500
2498.0000;51545.3500
2499.0000;51496.7300
2500.0000;51509.9700
2501.0000;51613.7600
2502.0000;51726.8800
2503.0000;51775.2800
2504.0000;51771.2200
2505.0000;51744.2500
2506.0000;51710.1300
2507.0000;51730.6300
2508.0000;51761.8200
2509.0000;51744.1500
2510.0000;51697.3000
2511.0000;51651.2600
2512.0000;51624.9800
2513.0000;51641.8300
2514.0000;51682.9200
2515.0000;51663.4900
2516.0000;51594.1100
2517.0000;51566.5000
2518.0000;51591.8300
2519.0000;51615.3400
2520.0000;51621.9100
2521.0000;51611.9400
2522.0000;51582.2400
2523.0000;51531.4100
2524.0000;51466.0100
2525.0000;51376.3300
2526.0000;51271.2000
2527.0000;51197.6600
2528.0000;51179.7800
2529.0000;51206.6900
2530.0000;51239.4800
2531.0000;51295.5400
2532.0000;51370.5500
2533.0000;51422.7400
2534.0000;51427.8800
2535.0000;51391.7900
2536.0000;51358.0100
2537.0000;51334.6800
2538.0000;51355.9100
2539.0000;51383.1900
2540.0000;51348.6200
2541.0000;51255.5500
2542.0000;51108.6400
2543.0000;50973.7200
2544.0000;50925.6800
2545.0000;50982.0000
2546.0000;51030.3600
2547.0000;51051.8500
2548.0000;51041.0600
2549.0000;50993.6100
2550.0000;50943.5100
2551.0000;50903.9000
2552.0000;50856.2800
2553.0000;50803.3900
2554.0000;50761.2700
2555.0000;50738.6700
2556.0000;50747.7700
2557.0000;50789.2300
2558.0000;50802.2500
2559.0000;50744.6800
2560.0000;50695.2500
2561.0000;50716.1600
2562.0000;50735.4600
2563.0000;50693.7500
2564.0000;50631.0500
2565.0000;50568.2800
2566.0000;50533.4000
2567.0000;50537.7100
2568.0000;50565.8200
2569.0000;50558.5100
2570.0000;50546.7000
2571.0000;50575.7700
2572.0000;50594.8200
2573.0000;50527.6400
2574.0000;50423.6400
2575.0000;50370.2700
2576.0000;50387.3500
2577.0000;50454.8900
2578.0000;50547.6900
2579.0000;50590.2000
2580.0000;50567.5800
2581.0000;50521.5600
2582.0000;50469.3200
2583.0000;50457.2300
2584.0000;50491.4600
2585.0000;50513.0000
2586.0000;50515.3300
2587.0000;50555.5100
2588.0000;50629.3600
2589.0000;50657.3600
2590.0000;50616.4800
2591.0000;50586.7400
2592.0000;50600.3500
2593.0000;50602.9300
2594.0000;50575.9600
2595.0000;50540.8200
2596.0000;50509.5400
2597.0000;50483.9100
2598.0000;50466.4300
2599.0000;50471.4200
2600.0000;50502.3000
2601.0000;50534.5300
2602.0000;50546.0100
2603.0000;50529.2200
2604.0000;50479.5200
2605.0000;50438.7400
2606.0000;50453.7600
2607.0000;50477.3700
2608.0000;50451.3200
2609.0000;50411.5400
2610.0000;50378.9800
2611.0000;50381.4200
2612.0000;50442.1900
2613.0000;50521.1000
2614.0000;50557.2100
2615.0000;50541.8800
2616.0000;50500.1600
2617.0000;50433.2300
2618.0000;50377.4300
2619.0000;50322.3300
2620.0000;50205.1400
2621.0000;50101.6800
2622.0000;50091.0100
2623.0000;50171.8300
2624.0000;50241.9200
2625.0000;50293.3200
2626.0000;50328.3200
2627.0000;50339.6600
2628.0000;50369.8400
2629.0000;50402.9400
2630.0000;50419.7700
2631.0000;50414.4600
2632.0000;50407.4200
2633.0000;50403.8600
2634.0000;50424.8600
2635.0000;50455.4600
2636.0000;50432.9100
2637.0000;50350.0100
2638.0000;50245.0700
2639.0000;50152.6800
2640.0000;50105.6700
2641.0000;50128.3000
2642.0000;50167.3200
2643.0000;50204.2900
2644.0000;50233.5500
2645.0000;50246.7800
2646.0000;50274.8900
2647.0000;50314.7600
2648.0000;50291.8200
2649.0000;50187.0000
2650.0000;50077.3800
2651.0000;50008.5700
2652.0000;49955.7900
2653.0000;49914.5500
2654.0000;49877.8400
2655.0000;49836.4400
2656.0000;49791.9100
2657.0000;49742.1700
2658.0000;49709.9600
2659.0000;49706.1200
2660.0000;49718.3000
2661.0000;49731.4400
2662.0000;49734.2600
2663.0000;49713.4200
2664.0000;49703.2100
2665.0000;49727.9800
2666.0000;49751.5800
2667.0000;49752.6300
2668.0000;49727.0900
2669.0000;49679.2700
2670.0000;49595.3500
2671.0000;49473.1200
2672.0000;49336.8800
2673.0000;49205.1300
2674.0000;49090.6400
2675.0000;48971.2100
2676.0000;48946.3200
2677.0000;49046.7400
2678.0000;49177.3600
2679.0000;49207.8400
2680.0000;49218.4500
2681.0000;49285.2300
2682.0000;49344.9800
2683.0000;49378.0500
2684.0000;49375.3400
2685.0000;49353.0400
2686.0000;49325.1900
2687.0000;49336.8800
2688.0000;49327.5000
2689.0000;49240.1900
2690.0000;49136.3200
2691.0000;49078.4800
2692.0000;49049.2600
2693.0000;48998.1000
2694.0000;48961.4700
2695.0000;48935.7700
2696.0000;48919.3900
2697.0000;48876.2100
2698.0000;48846.5600
2699.0000;48845.4700
2700.0000;48877.1100
2701.0000;48924.5100
2702.0000;48972.8600
2703.0000;49007.1200
2704.0000;49006.3800
2705.0000;48969.8800
2706.0000;48928.5500
2707.0000;48934.6300
2708.0000;48964.7300
2709.0000;48975.6600
2710.0000;48992.9800
2711.0000;49043.4600
2712.0000;49090.4400
2713.0000;49107.5500
2714.0000;49100.0000
2715.0000;49095.5900
2716.0000;49096.3900
2717.0000;49116.7700
2718.0000;49150.0200
2719.0000;49202.4500
2720.0000;49219.9800
2721.0000;49148.5700
2722.0000;49066.7500
2723.0000;49091.5700
2724.0000;49134.3400
2725.0000;49085.7700
2726.0000;48985.9100
2727.0000;48860.6500
2728.0000;48770.3600
2729.0000;48753.2200
2730.0000;48792.5000
2731.0000;48810.7100
2732.0000;48821.0400
2733.0000;48815.6500
2734.0000;48792.6500
2735.0000;48757.6400
2736.0000;48723.8000
2737.0000;48704.0300
2738.0000;48694.7600
2739.0000;48689.8800
2740.0000;48650.5500
2741.0000;48530.5600
2742.0000;48393.3100
2743.0000;48281.9200
2744.0000;48214.7400
2745.0000;48175.0200
2746.0000;48166.1600
2747.0000;48134.5700
2748.0000;48148.9700
2749.0000;48237.0000
2750.0000;48341.7000
2751.0000;48398.1700
2752.0000;48429.1800
2753.0000;48467.1000
2754.0000;48481.3400
2755.0000;48481.4600
2756.0000;48430.4800
2757.0000;48321.1100
2758.0000;48214.8200
2759.0000;48170.9600
2760.0000;48142.4500
2761.0000;48089.2300
2762.0000;48060.4600
2763.0000;48074.9500
2764.0000;48066.6800
2765.0000;47992.0200
2766.0000;47917.3600
2767.0000;47885.4500
2768.0000;47893.0800
2769.0000;47934.7600
2770.0000;47994.7100
2771.0000;48046.7900
2772.0000;48080.1300
2773.0000;48081.9900
2774.0000;48070.6400
2775.0000;48057.1800
2776.0000;48009.6600
2777.0000;47926.2100
2778.0000;47857.7300
2779.0000;47828.8300
2780.0000;47790.7300
2781.0000;47737.9600
2782.0000;47697.8700
2783.0000;47685.6500
2784.0000;47677.6600
2785.0000;47676.1600
2786.0000;47718.2600
2787.0000;47792.7100
2788.0000;47826.6300
2789.0000;47796.6800
2790.0000;47762.1300
2791.0000;47738.2200
2792.0000;47724.2700
2793.0000;47727.3400
2794.0000;47736.4400
2795.0000;47749.0400
2796.0000;47760.3100
2797.0000;47765.2800
2798.0000;47768.5400
2799.0000;47760.7300
2800.0000;47725.8100
2801.0000;47678.9200
2802.0000;47651.1600
2803.0000;47644.8200
2804.0000;47616.7900
2805.0000;47597.2500
2806.0000;47621.0200
2807.0000;47678.8200
2808.0000;47743.3700
2809.0000;47778.8000
2810.0000;47754.9000
2811.0000;47695.9300
2812.0000;47672.0000
2813.0000;47664.0600
2814.0000;47640.8900
2815.0000;47607.1300
2816.0000;47546.2800
2817.0000;47496.0300
2818.0000;47474.5900
2819.0000;47490.5900
2820.0000;47524.5700
2821.0000;47571.2500
2822.0000;47609.0600
2823.0000;47631.8600
2824.0000;47636.3500
2825.0000;47650.6800
2826.0000;47701.6400
2827.0000;47736.2700
2828.0000;47724.0200
2829.0000;47739.5900
2830.0000;47821.0800
2831.0000;47849.3800
2832.0000;47774.0400
2833.0000;47724.3000
2834.0000;47751.1800
2835.0000;47753.1600
2836.0000;47708.8400
2837.0000;47709.0000
2838.0000;47766.7500
2839.0000;47793.1300
2840.0000;47765.4600
2841.0000;47717.6700
2842.0000;47670.2700
2843.0000;47657.9900
2844.0000;47675.0100
2845.0000;47643.7400
2846.0000;47572.5400
2847.0000;47497.6100
2848.0000;47444.0900
2849.0000;47420.8200
2850.0000;47426.2300
2851.0000;47392.9700
2852.0000;47366.6600
2853.0000;47404.0200
2854.0000;47469.3500
2855.0000;47488.8900
2856.0000;47479.6000
2857.0000;47478.3200
2858.0000;47479.5600
2859.0000;47487.9100
2860.0000;47514.7800
2861.0000;47570.3000
2862.0000;47628.3800
2863.0000;47678.8000
2864.0000;47665.7400
2865.0000;47569.2600
2866.0000;47422.2300
2867.0000;47278.0300
2868.0000;47156.8500
2869.0000;47090.3600
2870.0000;47024.6100
2871.0000;46945.5700
2872.0000;46879.1400
2873.0000;46840.0000
2874.0000;46817.9600
2875.0000;46824.5000
2876.0000;46877.8200
2877.0000;46975.7500
2878.0000;47092.3000
2879.0000;47192.2800
2880.0000;47288.0800
2881.0000;47332.8600
2882.0000;47332.5800
2883.0000;47278.2500
2884.0000;47218.4600
2885.0000;47160.7000
2886.0000;47095.9300
2887.0000;47071.0600
2888.0000;47115.9200
2889.0000;47177.7600
2890.0000;47161.4300
2891.0000;47133.9400
2892.0000;47164.6700
2893.0000;47214.2000
2894.0000;47259.1900
2895.0000;47276.6800
2896.0000;47253.0500
2897.0000;47224.3900
2898.0000;47218.3900
2899.0000;47209.5500
2900.0000;47190.0500
2901.0000;47153.1500
2902.0000;47101.7800
2903.0000;47040.2900
2904.0000;46988.2900
2905.0000;46968.1100
2906.0000;46981.3600
2907.0000;46960.1900
2908.0000;46921.3800
2909.0000;46938.0500
2910.0000;46977.0400
2911.0000;46918.8000
2912.0000;46837.8800
2913.0000;46878.4400
2914.0000;46983.6700
2915.0000;47040.6100
2916.0000;47062.4400
2917.0000;47086.7100
2918.0000;47070.7000
2919.0000;46999.4100
2920.0000;46962.7100
2921.0000;47034.0200
2922.0000;47119.6400
2923.0000;47152.6400
2924.0000;47121.9800
2925.0000;47029.9300
2926.0000;46969.0800
2927.0000;46970.8000
2928.0000;46893.4300
2929.0000;46743.4200
2930.0000;46670.5800
2931.0000;46701.1300
2932.0000;46705.6900
2933.0000;46686.5700
2934.0000;46669.3700
2935.0000;46651.2700
2936.0000;46629.9000
2937.0000;46581.5800
2938.0000;46456.6700
2939.0000;46333.5600
2940.0000;46278.6400
2941.0000;46281.7200
2942.0000;46285.2000
2943.0000;46293.0200
2944.0000;46279.1800
2945.0000;46292.3700
2946.0000;46352.0100
2947.0000;46401.0100
2948.0000;46408.6600
2949.0000;46408.4500
2950.0000;46411.1900
2951.0000;46430.4000
2952.0000;46461.8000
2953.0000;46479.5500
2954.0000;46478.0100
2955.0000;46490.8600
2956.0000;46489.3600
2957.0000;46421.7000
2958.0000;46324.1700
2959.0000;46261.7000
2960.0000;46247.6200
2961.0000;46255.5200
2962.0000;46289.7300
2963.0000;46328.6400
2964.0000;46313.5500
2965.0000;46203.9800
2966.0000;46110.2300
2967.0000;46108.3300
2968.0000;46072.3000
2969.0000;45972.6500
2970.0000;45935.0000
2971.0000;45994.8900
2972.0000;46061.9900
2973.0000;46098.5300
2974.0000;46057.3400
2975.0000;45961.5200
2976.0000;45929.2700
2977.0000;45940.9600
2978.0000;45905.8400
2979.0000;45867.0200
2980.0000;45872.1200
2981.0000;45865.2500
2982.0000;45775.9600
2983.0000;45703.1100
2984.0000;45714.0700
2985.0000;45732.6000
2986.0000;45710.0200
2987.0000;45697.5700
2988.0000;45710.2300
2989.0000;45733.7500
2990.0000;45760.5000
2991.0000;45786.9300
2992.0000;45802.0500
2993.0000;45788.5900
2994.0000;45785.0500
2995.0000;45902.4300
2996.0000;46050.2300
2997.0000;46096.1100
2998.0000;46047.5900
2999.0000;45964.7600
3000.0000;45910.5500
3001.0000;45973.0000
3002.0000;46004.2300
3003.0000;45907.5900
3004.0000;45815.5400
3005.0000;45790.7900
3006.0000;45761.2200
3007.0000;45726.5900
3008.0000;45734.0200
3009.0000;45777.1700
3010.0000;45777.5300
3011.0000;45752.3900
3012.0000;45779.4400
3013.0000;45818.2100
3014.0000;45803.3900
3015.0000;45756.3600
3016.0000;45719.3400
3017.0000;45671.6500
3018.0000;45601.3000
3019.0000;45547.3900
3020.0000;45530.8100
3021.0000;45506.1400
3022.0000;45454.3700
3023.0000;45382.6200
3024.0000;45309.6000
3025.0000;45252.1000
3026.0000;45239.6600
3027.0000;45271.6000
3028.0000;45333.2700
3029.0000;45368.8600
3030.0000;45358.4100
3031.0000;45293.4400
3032.0000;45227.6400
3033.0000;45223.9900
3034.0000;45271.7800
3035.0000;45350.4700
3036.0000;45353.2800
3037.0000;45239.6400
3038.0000;45199.8600
3039.0000;45278.7500
3040.0000;45323.5400
3041.0000;45310.4100
3042.0000;45296.0400
3043.0000;45272.1100
3044.0000;45228.1100
3045.0000;45182.4500
3046.0000;45148.7900
3047.0000;45143.0700
3048.0000;45165.5100
3049.0000;45172.7700
3050.0000;45129.1200
3051.0000;45062.6000
3052.0000;44991.8300
3053.0000;44915.3000
3054.0000;44849.8000
3055.0000;44797.0300
3056.0000;44760.7300
3057.0000;44673.0700
3058.0000;44577.9500
3059.0000;44513.6100
3060.0000;44485.5300
3061.0000;44437.4800
3062.0000;44411.5300
3063.0000;44413.6400
3064.0000;44437.7500
3065.0000;44467.3700
3066.0000;44521.5100
3067.0000;44584.0200
3068.0000;44591.3700
3069.0000;44524.2000
3070.0000;44413.9300
3071.0000;44317.6400
3072.0000;44311.2200
3073.0000;44372.8000
3074.0000;44380.4600
3075.0000;44392.2500
3076.0000;44451.4700
3077.0000;44492.1500
3078.0000;44475.9300
3079.0000;44494.4500
3080.0000;44574.0700
3081.0000;44591.8200
3082.0000;44521.2000
3083.0000;44436.3000
3084.0000;44371.7900
3085.0000;44343.0400
3086.0000;44371.7000
3087.0000;44433.3600
3088.0000;44498.7300
3089.0000;44520.1800
3090.0000;44502.2800
3091.0000;44461.8500
3092.0000;44440.5200
3093.0000;44464.9500
3094.0000;44515.3500
3095.0000;44567.7900
3096.0000;44578.9100
3097.0000;44545.8500
3098.0000;44532.8100
3099.0000;44520.4700
3100.0000;44476.8400
3101.0000;44420.3200
3102.0000;44363.1700
3103.0000;44326.2000
3104.0000;44317.8800
3105.0000;44350.2800
3106.0000;44413.1500
3107.0000;44452.7500
3108.0000;44449.1800
3109.0000;44441.9700
3110.0000;44438.2300
3111.0000;44466.9100
3112.0000;44489.3700
3113.0000;44455.5300
3114.0000;44400.7800
3115.0000;44365.2300
3116.0000;44348.6100
3117.0000;44352.1400
3118.0000;44347.3200
3119.0000;44319.5800
3120.0000;44246.6100
3121.0000;44161.1200
3122.0000;44145.2300
3123.0000;44182.9100
3124.0000;44200.4800
3125.0000;44165.0000
3126.0000;44040.7100
3127.0000;43914.6600
3128.0000;43858.8400
3129.0000;43791.7200
3130.0000;43704.7500
3131.0000;43677.5400
3132.0000;43708.9600
3133.0000;43666.6800
3134.0000;43573.6100
3135.0000;43481.1000
3136.0000;43435.4500
3137.0000;43456.3600
3138.0000;43483.4600
3139.0000;43447.1400
3140.0000;43414.0700
3141.0000;43411.7800
3142.0000;43395.5300
3143.0000;43363.3800
3144.0000;43336.3400
3145.0000;43309.4300
3146.0000;43240.1800
3147.0000;43171.8600
3148.0000;43136.1800
3149.0000;43130.0300
3150.0000;43131.3400
3151.0000;43098.5500
3152.0000;43020.7700
3153.0000;43033.9100
3154.0000;43144.9900
3155.0000;43186.0700
3156.0000;43164.4400
3157.0000;43183.1300
3158.0000;43226.4600
3159.0000;43278.8200
3160.0000;43351.5700
3161.0000;43447.5500
3162.0000;43493.9000
3163.0000;43453.5300
3164.0000;43329.0500
3165.0000;43162.4200
3166.0000;43022.6400
3167.0000;42968.7200
3168.0000;42972.3500
3169.0000;43006.4200
3170.0000;42966.8000
3171.0000;42934.4000
3172.0000;42955.1900
3173.0000;42999.7200
3174.0000;43053.2800
3175.0000;43117.8800
3176.0000;43175.9900
3177.0000;43247.6400
3178.0000;43265.4500
3179.0000;43165.7300
3180.0000;43043.7600
3181.0000;43019.1300
3182.0000;43020.2500
3183.0000;43000.4600
3184.0000;42977.6300
3185.0000;42954.4500
3186.0000;42921.8700
3187.0000;42894.8000
3188.0000;42873.5900
3189.0000;42900.4600
3190.0000;43014.5400
3191.0000;43103.7100
3192.0000;43072.9700
3193.0000;43066.3400
3194.0000;43130.5200
3195.0000;43097.6000
3196.0000;42966.6400
3197.0000;42877.2500
3198.0000;42843.5200
3199.0000;42813.9500
3200.0000;42779.6800
3201.0000;42697.8000
3202.0000;42624.6400
3203.0000;42592.6900
3204.0000;42584.6600
3205.0000;42596.1000
3206.0000;42606.9300
3207.0000;42598.7400
3208.0000;42538.9400
3209.0000;42474.9500
3210.0000;42470.7500
3211.0000;42463.2600
3212.0000;42405.5000
3213.0000;42347.7600
3214.0000;42310.5700
3215.0000;42257.4900
3216.0000;42208.7800
3217.0000;42173.4800
3218.0000;42175.2500
3219.0000;42199.9500
3220.0000;42263.8500
3221.0000;42358.8200
3222.0000;42407.5400
3223.0000;42379.3100
3224.0000;42376.3200
3225.0000;42384.2900
3226.0000;42310.8600
3227.0000;42200.0500
3228.0000;42125.3700
3229.0000;42071.7300
3230.0000;42005.3000
3231.0000;41978.2300
3232.0000;41996.5100
3233.0000;41974.5900
3234.0000;41906.2200
3235.0000;41827.2000
3236.0000;41779.1800
3237.0000;41805.3600
3238.0000;41820.2600
3239.0000;41731.2500
3240.0000;41627.5400
3241.0000;41566.6800
3242.0000;41531.4700
3243.0000;41531.7300
3244.0000;41532.8800
3245.0000;41529.6400
3246.0000;41497.0500
3247.0000;41464.7700
3248.0000;41452.4700
3249.0000;41499.4600
3250.0000;41598.4600
3251.0000;41642.7700
3252.0000;41625.0400
3253.0000;41684.9200
3254.0000;41739.7500
3255.0000;41688.2400
3256.0000;41589.7100
3257.0000;41516.4300
3258.0000;41476.8900
3259.0000;41481.8400
3260.0000;41486.5400
3261.0000;41487.6400
3262.0000;41489.7200
3263.0000;41488.5300
3264.0000;41480.8100
3265.0000;41460.5400
3266.0000;41429.1900
3267.0000;41429.0800
3268.0000;41459.8100
3269.0000;41445.8900
3270.0000;41392.4200
3271.0000;41355.2800
3272.0000;41305.1400
3273.0000;41202.7500
3274.0000;41138.6600
3275.0000;41157.0700
3276.0000;41173.0500
3277.0000;41163.3400
3278.0000;41135.1800
3279.0000;41095.4000
3280.0000;41046.3800
3281.0000;41028.1800
3282.0000;41061.3900
3283.0000;41117.0900
3284.0000;41163.4200
3285.0000;41165.3000
3286.0000;41119.4400
3287.0000;41080.0400
3288.0000;41044.0900
3289.0000;41005.5800
3290.0000;40954.2900
3291.0000;40883.6800
3292.0000;40808.8500
3293.0000;40754.7500
3294.0000;40731.0500
3295.0000;40737.3900
3296.0000;40725.0700
3297.0000;40685.9500
3298.0000;40603.4100
3299.0000;40562.7900
3300.0000;40600.1300
3301.0000;40655.1700
3302.0000;40707.8500
3303.0000;40765.4500
3304.0000;40789.6600
3305.0000;40765.8500
3306.0000;40711.7300
3307.0000;40656.9800
3308.0000;40583.2000
3309.0000;40510.4900
3310.0000;40475.3800
3311.0000;40468.0000
3312.0000;40415.8800
3313.0000;40347.6100
3314.0000;40273.6800
3315.0000;40240.6400
3316.0000;40256.4400
3317.0000;40218.3500
3318.0000;40155.2300
3319.0000;40166.5700
3320.0000;40191.2600
3321.0000;40143.5300
3322.0000;40092.2400
3323.0000;40080.7200
3324.0000;40129.5900
3325.0000;40209.9800
3326.0000;40205.5400
3327.0000;40169.0600
3328.0000;40220.1900
3329.0000;40226.8200
3330.0000;40126.5900
3331.0000;40088.2000
3332.0000;40139.8900
3333.0000;40154.8900
3334.0000;40134.3800
3335.0000;40103.6100
3336.0000;40077.6100
3337.0000;40072.3900
3338.0000;40036.5000
3339.0000;39970.0900
3340.0000;39935.4100
3341.0000;39928.2900
3342.0000;39886.9000
3343.0000;39843.1300
3344.0000;39812.3400
3345.0000;39808.4900
3346.0000;39837.6300
3347.0000;39889.2300
3348.0000;39947.1500
3349.0000;39994.8000
3350.0000;40013.9600
3351.0000;40009.1300
3352.0000;40015.1300
3353.0000;40045.1800
3354.0000;40053.4000
3355.0000;40032.0600
3356.0000;39992.5800
3357.0000;39974.6000
3358.0000;40021.6600
3359.0000;40007.2200
3360.0000;39892.3600
3361.0000;39838.5500
3362.0000;39847.7300
3363.0000;39777.9100
3364.0000;39720.1300
3365.0000;39752.2900
3366.0000;39825.6100
3367.0000;39892.3600
3368.0000;39900.5600
3369.0000;39850.1900
3370.0000;39825.8900
3371.0000;39806.6200
3372.0000;39769.2700
3373.0000;39748.6800
3374.0000;39750.5500
3375.0000;39699.4100
3376.0000;39630.3000
3377.0000;39655.8300
3378.0000;39702.3800
3379.0000;39671.1600
3380.0000;39625.4800
3381.0000;39595.9000
3382.0000;39557.5500
3383.0000;39512.6800
3384.0000;39438.0000
3385.0000;39395.7500
3386.0000;39425.8100
3387.0000;39473.6200
3388.0000;39510.1400
3389.0000;39576.3700
3390.0000;39642.6900
3391.0000;39691.1600
3392.0000;39666.0300
3393.0000;39558.6000
3394.0000;39430.9400
3395.0000;39345.0500
3396.0000;39348.9100
3397.0000;39403.2500
3398.0000;39358.8600
3399.0000;39274.9700
3400.0000;39204.6600
3401.0000;39138.3000
3402.0000;39087.5600
3403.0000;39006.0900
3404.0000;38944.9800
3405.0000;38938.3400
3406.0000;38972.8600
3407.0000;39013.5500
3408.0000;39038.4000
3409.0000;39041.7900
3410.0000;39065.6100
3411.0000;39087.4900
3412.0000;39090.2200
3413.0000;39081.1900
3414.0000;39064.8800
3415.0000;39008.4800
3416.0000;38926.9700
3417.0000;38847.9800
3418.0000;38804.3700
3419.0000;38798.7600
3420.0000;38818.2800
3421.0000;38839.0500
3422.0000;38823.8700
3423.0000;38785.9000
3424.0000;38771.9300
3425.0000;38763.2500
3426.0000;38745.2100
3427.0000;38725.7100
3428.0000;38720.3200
3429.0000;38761.8600
3430.0000;38819.9600
3431.0000;38847.0800
3432.0000;38815.9300
3433.0000;38731.8200
3434.0000;38685.9200
3435.0000;38694.2400
3436.0000;38693.4100
3437.0000;38684.3400
3438.0000;38656.5100
3439.0000;38623.6500
3440.0000;38600.1300
3441.0000;38605.4000
3442.0000;38604.5200
3443.0000;38515.0000
3444.0000;38433.0700
3445.0000;38427.8000
3446.0000;38422.0800
3447.0000;38415.1800
3448.0000;38455.1100
3449.0000;38476.5100
3450.0000;38402.3800
3451.0000;38319.3900
3452.0000;38284.8700
3453.0000;38263.4600
3454.0000;38271.4000
3455.0000;38296.7200
3456.0000;38357.5300
3457.0000;38443.3400
3458.0000;38478.4200
3459.0000;38426.8200
3460.0000;38331.7700
3461.0000;38203.7500
3462.0000;38060.2500
3463.0000;38010.3200
3464.0000;38078.8600
3465.0000;38085.0300
3466.0000;38056.8000
3467.0000;38127.3400
3468.0000;38177.8600
3469.0000;38129.0100
3470.0000;38102.7400
3471.0000;38107.8300
3472.0000;38045.2700
3473.0000;37980.4100
3474.0000;37985.8300
3475.0000;38005.0400
3476.0000;38014.1300
3477.0000;38070.9400
3478.0000;38101.8100
3479.0000;37983.1100
3480.0000;37861.4100
3481.0000;37848.0400
3482.0000;37844.1000
3483.0000;37816.3300
3484.0000;37696.7300
3485.0000;37592.6400
3486.0000;37599.4600
3487.0000;37613.6500
3488.0000;37603.8700
3489.0000;37621.1100
3490.0000;37656.8600
3491.0000;37683.8800
3492.0000;37733.9700
3493.0000;37808.2000
3494.0000;37840.5800
3495.0000;37817.6000
3496.0000;37782.5400
3497.0000;37770.8400
3498.0000;37813.3600
3499.0000;37830.5100
3500.0000;37788.6100
3501.0000;37691.5400
3502.0000;37564.8500
3503.0000;37452.0200
3504.0000;37335.3400
3505.0000;37250.3000
3506.0000;37257.3300
3507.0000;37305.9000
3508.0000;37248.0700
3509.0000;37221.8700
3510.0000;37281.1700
3511.0000;37315.3100
3512.0000;37314.5600
3513.0000;37318.3600
3514.0000;37313.5800
3515.0000;37300.3000
3516.0000;37254.8900
3517.0000;37194.3300
3518.0000;37151.5300
3519.0000;37153.5200
3520.0000;37198.6600
3521.0000;37211.5500
3522.0000;37181.0400
3523.0000;37195.3900
3524.0000;37204.5200
3525.0000;37150.1100
3526.0000;37057.4100
3527.0000;36958.4400
3528.0000;36885.3800
3529.0000;36826.5500
3530.0000;36702.0500
3531.0000;36641.1600
3532.0000;36679.7000
3533.0000;36662.1900
3534.0000;36616.5200
3535.0000;36630.2700
3536.0000;36661.5500
3537.0000;36678.2100
3538.0000;36693.6100
3539.0000;36706.8000
3540.0000;36739.7100
3541.0000;36724.9700
3542.0000;36631.0500
3543.0000;36547.0000
3544.0000;36507.6200
3545.0000;36489.6800
3546.0000;36469.4600
3547.0000;36408.5200
3548.0000;36327.2400
3549.0000;36267.0000
3550.0000;36272.6600
3551.0000;36295.3300
3552.0000;36255.1900
3553.0000;36247.5400
3554.0000;36268.8400
3555.0000;36194.0400
3556.0000;36084.2600
3557.0000;36031.3400
3558.0000;35991.3800
3559.0000;35961.8000
3560.0000;35955.6200
3561.0000;35964.9100
3562.0000;35958.4900
3563.0000;35943.5200
3564.0000;35924.4800
3565.0000;35899.1500
3566.0000;35899.8200
3567.0000;35958.4300
3568.0000;35978.0700
3569.0000;35931.1700
3570.0000;35946.3100
3571.0000;35995.2600
3572.0000;36007.8600
3573.0000;36009.8000
3574.0000;35999.0700
3575.0000;35915.1000
3576.0000;35794.9700
3577.0000;35715.0900
3578.0000;35608.1800
3579.0000;35472.4300
3580.0000;35395.2800
3581.0000;35407.2100
3582.0000;35455.1300
3583.0000;35498.6600
3584.0000;35491.9500
3585.0000;35461.0000
3586.0000;35422.1000
3587.0000;35402.6600
3588.0000;35405.8000
3589.0000;35427.4100
3590.0000;35447.8100
3591.0000;35478.7800
3592.0000;35553.3000
3593.0000;35553.4700
3594.0000;35451.3700
3595.0000;35417.7400
3596.0000;35438.2100
3597.0000;35416.5500
3598.0000;35462.8800
3599.0000;35579.2800
3600.0000;35593.2500
3601.0000;35538.5400
3602.0000;35543.0200
3603.0000;35532.1100
3604.0000;35500.9900
3605.0000;35543.5400
3606.0000;35597.3900
3607.0000;35555.3400
3608.0000;35498.1100
3609.0000;35471.9700
3610.0000;35470.7400
3611.0000;35510.2100
3612.0000;35580.7100
3613.0000;35625.7000
3614.0000;35602.4200
3615.0000;35507.3600
3616.0000;35400.7600
3617.0000;35357.9600
3618.0000;35374.4500
3619.0000;35414.1100
3620.0000;35347.5000
3621.0000;35271.0700
3622.0000;35283.9100
3623.0000;35286.1900
3624.0000;35255.2700
3625.0000;35201.5300
3626.0000;35154.3100
3627.0000;35135.6800
3628.0000;35120.1000
3629.0000;35112.2000
3630.0000;35117.1600
3631.0000;35126.7500
3632.0000;35127.5500
3633.0000;35105.1700
3634.0000;35082.5000
3635.0000;35103.4200
3636.0000;35131.7100
3637.0000;35143.1900
3638.0000;35190.6300
3639.0000;35191.0200
3640.0000;35029.9900
3641.0000;34913.3200
3642.0000;34928.7100
3643.0000;34910.4800
3644.0000;34865.9500
3645.0000;34802.0300
3646.0000;34789.6400
3647.0000;34826.5000
3648.0000;34775.3000
3649.0000;34749.8300
3650.0000;34853.6400
3651.0000;34889.0900
3652.0000;34826.2500
3653.0000;34785.9200
3654.0000;34768.4500
3655.0000;34776.9900
3656.0000;34776.8200
3657.0000;34753.7100
3658.0000;34700.9500
3659.0000;34637.6800
3660.0000;34585.7900
3661.0000;34538.2100
3662.0000;34496.7800
3663.0000;34438.7300
3664.0000;34369.9100
3665.0000;34301.8100
3666.0000;34219.5900
3667.0000;34204.8900
3668.0000;34299.6100
3669.0000;34344.5200
3670.0000;34289.4900
3671.0000;34206.9600
3672.0000;34137.6600
3673.0000;34119.5500
3674.0000;34039.5800
3675.0000;33953.3000
3676.0000;33963.7500
3677.0000;34010.7400
3678.0000;34040.5600
3679.0000;34067.3100
3680.0000;34068.5500
3681.0000;34037.9100
3682.0000;33950.9900
3683.0000;33848.7900
3684.0000;33838.2400
3685.0000;33876.0800
3686.0000;33884.5200
3687.0000;33867.3500
3688.0000;33826.6200
3689.0000;33780.4400
3690.0000;33733.9000
3691.0000;33704.2700
3692.0000;33726.0400
3693.0000;33769.2200
3694.0000;33766.1900
3695.0000;33766.1800
3696.0000;33777.3600
3697.0000;33779.9500
3698.0000;33744.2600
3699.0000;33666.3100
3700.0000;33653.0400
3701.0000;33697.6800
3702.0000;33687.9800
3703.0000;33680.7100
3704.0000;33695.7100
3705.0000;33690.8000
3706.0000;33665.6800
3707.0000;33632.9500
3708.0000;33597.0100
3709.0000;33587.2300
3710.0000;33659.9600
3711.0000;33702.1100
3712.0000;33627.0700
3713.0000;33594.4500
3714.0000;33607.1400
3715.0000;33606.5500
3716.0000;33523.9400
3717.0000;33378.1900
3718.0000;33358.0900
3719.0000;33394.0300
3720.0000;33356.9600
3721.0000;33322.0000
3722.0000;33302.9100
3723.0000;33277.9200
3724.0000;33260.7900
3725.0000;33254.8500
3726.0000;33260.8700
3727.0000;33250.5400
3728.0000;33188.2700
3729.0000;33151.5900
3730.0000;33164.4900
3731.0000;33181.7200
3732.0000;33177.9200
3733.0000;33129.6200
3734.0000;33033.0100
3735.0000;32943.5300
3736.0000;32930.4100
3737.0000;32886.4500
3738.0000;32805.7400
3739.0000;32825.9200
3740.0000;32851.8000
3741.0000;32793.1100
3742.0000;32805.0500
3743.0000;32851.8700
3744.0000;32801.5900
3745.0000;32814.3800
3746.0000;32906.5700
3747.0000;32865.3000
3748.0000;32792.7700
3749.0000;32811.8000
3750.0000;32817.7800
3751.0000;32788.2700
3752.0000;32725.3100
3753.0000;32655.7800
3754.0000;32605.9100
3755.0000;32541.4000
3756.0000;32505.5700
3757.0000;32514.5000
3758.0000;32526.7800
3759.0000;32526.2200
3760.0000;32502.1800
3761.0000;32487.7700
3762.0000;32499.4200
3763.0000;32513.7100
3764.0000;32530.5500
3765.0000;32548.8000
3766.0000;32612.1500
3767.0000;32671.5900
3768.0000;32639.5500
3769.0000;32621.9700
3770.0000;32664.1300
3771.0000;32696.2200
3772.0000;32748.9300
3773.0000;32835.8100
3774.0000;32900.8600
3775.0000;32928.6900
3776.0000;32958.9800
3777.0000;32952.1600
3778.0000;32899.9800
3779.0000;32813.0200
3780.0000;32726.2400
3781.0000;32674.1900
3782.0000;32662.6100
3783.0000;32675.5800
3784.0000;32657.9300
3785.0000;32625.1300
3786.0000;32587.3800
3787.0000;32548.5000
3788.0000;32522.2000
3789.0000;32514.4300
3790.0000;32518.8100
3791.0000;32549.0500
3792.0000;32604.5600
3793.0000;32620.4800
3794.0000;32579.6100
3795.0000;32522.3300
3796.0000;32458.8900
3797.0000;32403.2200
3798.0000;32310.8000
3799.0000;32226.1000
3800.0000;32182.3800
3801.0000;32123.4500
3802.0000;32064.7800
3803.0000;32019.1200
3804.0000;31996.2700
3805.0000;31997.4300
3806.0000;31993.0500
3807.0000;32009.2200
3808.0000;32050.2300
3809.0000;32105.4300
3810.0000;32108.3000
3811.0000;32007.6100
3812.0000;31887.9800
3813.0000;31830.8500
3814.0000;31906.7800
3815.0000;31875.2000
3816.0000;31681.3100
3817.0000;31609.0200
3818.0000;31599.3900
3819.0000;31567.1500
3820.0000;31445.9300
3821.0000;31337.0200
3822.0000;31377.7600
3823.0000;31474.0500
3824.0000;31534.9700
3825.0000;31458.6900
3826.0000;31440.9000
3827.0000;31547.2900
3828.0000;31545.4500
3829.0000;31470.4500
3830.0000;31395.2300
3831.0000;31407.9400
3832.0000;31444.2500
3833.0000;31370.1800
3834.0000;31282.6900
3835.0000;31224.9300
3836.0000;31173.8200
3837.0000;31178.7000
3838.0000;31215.7500
3839.0000;31144.5300
3840.0000;31061.5600
3841.0000;31064.4900
3842.0000;31092.8100
3843.0000;31116.5700
3844.0000;31098.0600
3845.0000;31086.6100
3846.0000;31074.8700
3847.0000;31010.1900
3848.0000;30976.0600
3849.0000;30992.2900
3850.0000;30954.6400
3851.0000;30924.8800
3852.0000;30938.6700
3853.0000;30926.2800
3854.0000;30925.8300
3855.0000;30975.9900
3856.0000;30997.5200
3857.0000;30992.1500
3858.0000;31010.9700
3859.0000;31040.2200
3860.0000;31052.4000
3861.0000;31001.7000
3862.0000;30941.7700
3863.0000;30917.1900
3864.0000;30904.3500
3865.0000;30880.4200
3866.0000;30825.9200
3867.0000;30795.8000
3868.0000;30773.4200
3869.0000;30717.8500
3870.0000;30710.0900
3871.0000;30734.7800
3872.0000;30703.5300
3873.0000;30665.3500
3874.0000;30652.0900
3875.0000;30687.4700
3876.0000;30694.7600
3877.0000;30630.3800
3878.0000;30540.5800
3879.0000;30454.5400
3880.0000;30397.5500
3881.0000;30364.1800
3882.0000;30341.8400
3883.0000;30292.9800
3884.0000;30221.3000
3885.0000;30171.5200
3886.0000;30195.3800
3887.0000;30267.8200
3888.0000;30318.4300
3889.0000;30257.8100
3890.0000;30139.5300
3891.0000;30042.3400
3892.0000;29992.4500
3893.0000;29991.7500
3894.0000;30003.2800
3895.0000;29990.9200
3896.0000;29959.0300
3897.0000;29923.6200
3898.0000;29920.0600
3899.0000;29915.2300
3900.0000;29850.5800
3901.0000;29790.5400
3902.0000;29751.3500
3903.0000;29701.2500
3904.0000;29650.5400
3905.0000;29615.0200
3906.0000;29604.2100
3907.0000;29615.2300
3908.0000;29629.4700
3909.0000;29629.0200
3910.0000;29625.0400
3911.0000;29621.0400
3912.0000;29580.6900
3913.0000;29530.8100
3914.0000;29509.4200
3915.0000;29527.5000
3916.0000;29571.2000
3917.0000;29601.3300
3918.0000;29599.6100
3919.0000;29571.4500
3920.0000;29553.1700
3921.0000;29526.0400
3922.0000;29506.4200
3923.0000;29517.7700
3924.0000;29552.8200
3925.0000;29585.9000
3926.0000;29579.1200
3927.0000;29588.0000
3928.0000;29626.8000
3929.0000;29632.7500
3930.0000;29619.7500
3931.0000;29608.1000
3932.0000;29613.5400
3933.0000;29614.2800
3934.0000;29585.8400
3935.0000;29502.9500
3936.0000;29416.0400
3937.0000;29376.8100
3938.0000;29337.0000
3939.0000;29296.1800
3940.0000;29250.3400
3941.0000;29207.2700
3942.0000;29176.2200
3943.0000;29148.6900
3944.0000;29101.6100
3945.0000;29047.4600
3946.0000;29009.5100
3947.0000;28975.7800
3948.0000;28954.8500
3949.0000;28960.6300
3950.0000;28960.5000
3951.0000;28928.3800
3952.0000;28850.5000
3953.0000;28785.3000
3954.0000;28765.2600
3955.0000;28733.3900
3956.0000;28714.2100
3957.0000;28704.1400
3958.0000;28666.7800
3959.0000;28597.2600
3960.0000;28519.3700
3961.0000;28496.0400
3962.0000;28499.2400
3963.0000;28485.1900
3964.0000;28469.7900
3965.0000;28443.7600
3966.0000;28405.2700
3967.0000;28392.8900
3968.0000;28371.1300
3969.0000;28298.3800
3970.0000;28207.9700
3971.0000;28148.8200
3972.0000;28144.9100
3973.0000;28058.7100
3974.0000;27961.5700
3975.0000;27968.2700
3976.0000;27981.5200
3977.0000;27970.4700
3978.0000;27921.5500
3979.0000;27892.5000
3980.0000;27894.6300
3981.0000;27902.2000
3982.0000;27846.9900
3983.0000;27778.2200
3984.0000;27816.2500
3985.0000;27804.4300
3986.0000;27736.8400
3987.0000;27702.8500
3988.0000;27712.4800
3989.0000;27735.6300
3990.0000;27688.9700
3991.0000;27691.1100
3992.0000;27726.4600
3993.0000;27654.4600
3994.0000;27632.1200
3995.0000;27684.3200
3996.0000;27693.3400
3997.0000;27722.7200
3998.0000;27751.1400
3999.0000;27686.7200
4000.0000;27660.4000
4001.0000;27701.3200
4002.0000;27694.6000
4003.0000;27682.5300
4004.0000;27674.2500
4005.0000;27642.2000
4006.0000;27644.5100
4007.0000;27671.3100
4008.0000;27620.1900
4009.0000;27561.2800
4010.0000;27541.7900
4011.0000;27565.1900
4012.0000;27564.6900
4013.0000;27528.2900
4014.0000;27551.9800
4015.0000;27507.7800
4016.0000;27408.4000
4017.0000;27445.4700
4018.0000;27489.8900
4019.0000;27483.8400
4020.0000;27495.3300
4021.0000;27513.3200
4022.0000;27505.0400
4023.0000;27404.0000
4024.0000;27310.1200
4025.0000;27256.8000
4026.0000;27136.3000
4027.0000;27065.7800
4028.0000;27052.2200
4029.0000;26956.3800
4030.0000;26892.5400
4031.0000;26897.4400
4032.0000;26917.5500
4033.0000;26914.3000
4034.0000;26859.4600
4035.0000;26756.6700
4036.0000;26695.4400
4037.0000;26691.3400
4038.0000;26657.1200
4039.0000;26659.5000
4040.0000;26669.9800
4041.0000;26598.6600
4042.0000;26514.7600
4043.0000;26468.3100
4044.0000;26475.8900
4045.0000;26435.5000
4046.0000;26394.2000
4047.0000;26472.2900
4048.0000;26572.4500
4049.0000;26612.5000
4050.0000;26546.0900
4051.0000;26531.1500
4052.0000;26555.3500
4053.0000;26534.1400
4054.0000;26546.4800
4055.0000;26563.7800
4056.0000;26536.1400
4057.0000;26525.0900
4058.0000;26538.0800
4059.0000;26560.3000
4060.0000;26552.9400
4061.0000;26542.2100
4062.0000;26560.1400
4063.0000;26577.4300
4064.0000;26575.4000
4065.0000;26545.5100
4066.0000;26494.1000
4067.0000;26483.5200
4068.0000;26525.8700
4069.0000;26472.2900
4070.0000;26436.1100
4071.0000;26460.5200
4072.0000;26383.4800
4073.0000;26313.6700
4074.0000;26298.8200
4075.0000;26255.1800
4076.0000;26184.9200
4077.0000;26095.6200
4078.0000;25996.3200
4079.0000;25928.4300
4080.0000;25890.4800
4081.0000;25815.6700
4082.0000;25688.9300
4083.0000;25573.2200
4084.0000;25552.4600
4085.0000;25532.7600
4086.0000;25518.4400
4087.0000;25531.2800
4088.0000;25541.3100
4089.0000;25493.4500
4090.0000;25371.9900
4091.0000;25360.7100
4092.0000;25383.0100
4093.0000;25334.7300
4094.0000;25296.7100
4095.0000;25301.9600
4096.0000;25339.7900
4097.0000;25295.4100
4098.0000;25290.4900
4099.0000;25358.1500
4100.0000;25347.5800
4101.0000;25307.6700
4102.0000;25279.7500
4103.0000;25288.3800
4104.0000;25266.8400
4105.0000;25209.8500
4106.0000;25161.2500
4107.0000;25046.8900
4108.0000;24908.5100
4109.0000;24818.1900
4110.0000;24665.2700
4111.0000;24487.8800
4112.0000;24345.1700
4113.0000;24170.3800
4114.0000;23940.5600
4115.0000;23664.9100
4116.0000;23365.6300
4117.0000;23137.9600
4118.0000;22980.6000
4119.0000;22724.9100
4120.0000;22409.7500
4121.0000;22091.4300
4122.0000;21831.8200
4123.0000;21555.0900
4124.0000;21281.2200
4125.0000;21036.4900
4126.0000;20792.5400
4127.0000;20574.0500
4128.0000;20363.4800
4129.0000;20071.1700
4130.0000;19738.2400
4131.0000;19421.5400
4132.0000;19143.1900
4133.0000;18878.0600
4134.0000;18561.4000
4135.0000;18119.1800
4136.0000;17707.4000
4137.0000;17391.7100
4138.0000;17033.6700
4139.0000;16688.9000
4140.0000;16398.4400
4141.0000;16134.2500
4142.0000;15792.5800
4143.0000;15453.6100
4144.0000;15188.8400
4145.0000;14825.6600
4146.0000;14524.6900
4147.0000;14372.7900
4148.0000;14158.7100
4149.0000;13931.6200
4150.0000;13736.3200
4151.0000;13599.9500
4152.0000;13485.1000
4153.0000;13379.7300
4154.0000;13282.8600
4155.0000;13150.2700
4156.0000;12982.3900
4157.0000;12807.1000
4158.0000;12671.9600
4159.0000;12540.6600
4160.0000;12371.9200
4161.0000;12240.4800
4162.0000;12150.7700
4163.0000;12072.8600
4164.0000;11950.3100
4165.0000;11817.6700
4166.0000;11687.6400
4167.0000;11532.2800
4168.0000;11460.2900
4169.0000;11448.0200
4170.0000;11409.2300
4171.0000;11371.4500
4172.0000;11338.0200
4173.0000;11308.7500
4174.0000;11284.7900
4175.0000;11271.3000
4176.0000;11258.4000
4177.0000;11225.5600
4178.0000;11189.7500
4179.0000;11154.6100
4180.0000;11113.2200
4181.0000;11054.4700
4182.0000;11022.2400
4183.0000;11031.7900
4184.0000;10978.2600
4185.0000;10979.2800
4186.0000;11049.9100
4187.0000;11036.3300
4188.0000;11020.1700
4189.0000;11028.6800
4190.0000;11051.2800
4191.0000;11042.8800
4192.0000;11031.8100
4193.0000;11046.2700
4194.0000;10999.9900
4195.0000;10968.0200
4196.0000;10979.0200
4197.0000;10949.7600
4198.0000;10891.4100
4199.0000;10835.5900
4200.0000;10817.8800
4201.0000;10789.6600
4202.0000;10769.7000
4203.0000;10775.3700
4204.0000;10783.8600
4205.0000;10798.2600
4206.0000;10811.6100
4207.0000;10815.2300
4208.0000;10798.1300
4209.0000;10773.8700
4210.0000;10766.9000
4211.0000;10765.1100
4212.0000;10757.2100
4213.0000;10736.8600
4214.0000;10718.7900
4215.0000;10706.6500
4216.0000;10694.5000
4217.0000;10666.2300
4218.0000;10626.9300
4219.0000;10591.6000
4220.0000;10580.5900
4221.0000;10619.2700
4222.0000;10708.3700
4223.0000;10780.4000
4224.0000;10705.1000
4225.0000;10609.4100
4226.0000;10576.5900
4227.0000;10592.5800
4228.0000;10523.3200
4229.0000;10468.4900
4230.0000;10528.5700
4231.0000;10570.1900
4232.0000;10560.6700
4233.0000;10536.6100
4234.0000;10628.5800
4235.0000;10544.8700
4236.0000;9369.3350
4237.0000;6654.9630
4238.0000;3520.3300
