Raman Shift ; Dark Subtracted #1
-2.0000;371.4489
-1.0000;339.9509
0.0000;296.4260
1.0000;245.1625
2.0000;190.2757
3.0000;139.5540
4.0000;100.2348
5.0000;67.7421
6.0000;46.7531
7.0000;40.8811
8.0000;35.9903
9.0000;31.2814
10.0000;31.1499
11.0000;29.5471
12.0000;24.5468
13.0000;20.1844
14.0000;16.9273
15.0000;15.2580
16.0000;15.8348
17.0000;17.8297
18.0000;21.6960
19.0000;25.4969
20.0000;26.2986
21.0000;21.7094
22.0000;14.7499
23.0000;9.2519
24.0000;7.5794
25.0000;8.8309
26.0000;11.4938
27.0000;14.7719
28.0000;18.3484
29.0000;20.4841
30.0000;19.4769
31.0000;16.6639
32.0000;14.5469
33.0000;14.8888
34.0000;17.0902
35.0000;20.5312
36.0000;25.5093
37.0000;30.3944
38.0000;33.7439
39.0000;33.9045
40.0000;31.2200
41.0000;28.5032
42.0000;29.8566
43.0000;32.3090
44.0000;32.7614
45.0000;26.6674
46.0000;17.5344
47.0000;10.7993
48.0000;10.6330
49.0000;16.9027
50.0000;26.0057
51.0000;33.9074
52.0000;41.3765
53.0000;49.1216
54.0000;58.7016
55.0000;67.7537
56.0000;76.3755
57.0000;84.4792
58.0000;91.3547
59.0000;101.5025
60.0000;118.0761
61.0000;140.2209
62.0000;170.4133
63.0000;212.2702
64.0000;259.4690
65.0000;314.5300
66.0000;380.7336
67.0000;449.4452
68.0000;526.8771
69.0000;627.6686
70.0000;735.1725
71.0000;849.0300
72.0000;990.6508
73.0000;1132.0870
74.0000;1261.8860
75.0000;1396.0400
76.0000;1498.5940
77.0000;1597.5130
78.0000;1752.7940
79.0000;1932.7340
80.0000;2107.2290
81.0000;2278.0490
82.0000;2412.0290
83.0000;2541.6820
84.0000;2731.1880
85.0000;2950.4620
86.0000;3172.0390
87.0000;3416.6260
88.0000;3641.5000
89.0000;3852.9940
90.0000;4099.7140
91.0000;4341.6180
92.0000;4563.6120
93.0000;4816.0070
94.0000;5054.6620
95.0000;5285.8840
96.0000;5576.4070
97.0000;5887.5690
98.0000;6171.5260
99.0000;6464.7270
100.0000;6719.6290
101.0000;6912.0240
102.0000;7134.3640
103.0000;7346.4340
104.0000;7527.8910
105.0000;7728.1390
106.0000;7918.3830
107.0000;8088.7780
108.0000;8311.6750
109.0000;8545.6380
110.0000;8752.9080
111.0000;8960.1780
112.0000;9134.6450
113.0000;9257.9960
114.0000;9399.9380
115.0000;9538.1620
116.0000;9655.2350
117.0000;9790.8240
118.0000;9929.9610
119.0000;10046.6300
120.0000;10154.8800
121.0000;10237.0300
122.0000;10296.6700
123.0000;10376.5200
124.0000;10469.3000
125.0000;10559.0400
126.0000;10659.7700
127.0000;10760.4800
128.0000;10843.3500
129.0000;10913.8400
130.0000;10958.6200
131.0000;10985.4500
132.0000;11030.8700
133.0000;11092.1000
134.0000;11153.6300
135.0000;11219.7600
136.0000;11282.8000
137.0000;11329.7800
138.0000;11361.8600
139.0000;11370.2900
140.0000;11366.4600
141.0000;11379.7300
142.0000;11412.7300
143.0000;11451.2400
144.0000;11494.5200
145.0000;11534.2400
146.0000;11571.8400
147.0000;11617.3300
148.0000;11661.7800
149.0000;11702.6200
150.0000;11748.3900
151.0000;11793.8300
152.0000;11824.6500
153.0000;11843.5200
154.0000;11842.6200
155.0000;11835.7700
156.0000;11851.0400
157.0000;11888.0500
158.0000;11926.9400
159.0000;11950.0700
160.0000;11951.9100
161.0000;11946.1200
162.0000;11951.1700
163.0000;11966.3200
164.0000;11988.0400
165.0000;12014.3800
166.0000;12044.2700
167.0000;12076.5700
168.0000;12121.0300
169.0000;12167.7700
170.0000;12207.2100
171.0000;12233.4700
172.0000;12239.4500
173.0000;12237.7200
174.0000;12249.8400
175.0000;12272.7600
176.0000;12301.1900
177.0000;12339.6200
178.0000;12380.3200
179.0000;12420.5000
180.0000;12458.4300
181.0000;12487.9500
182.0000;12513.2400
183.0000;12551.8500
184.0000;12592.9300
185.0000;12630.2200
186.0000;12672.1900
187.0000;12705.6400
188.0000;12732.7200
189.0000;12763.6400
190.0000;12786.2000
191.0000;12802.1900
192.0000;12819.2600
193.0000;12829.6600
194.0000;12838.5400
195.0000;12855.8600
196.0000;12875.2900
197.0000;12892.2400
198.0000;12905.7000
199.0000;12913.1000
200.0000;12919.6900
201.0000;12934.6800
202.0000;12951.8400
203.0000;12966.9000
204.0000;12976.3300
205.0000;12980.6800
206.0000;12988.6200
207.0000;13010.2100
208.0000;13039.1200
209.0000;13069.1100
210.0000;13097.8800
211.0000;13119.9400
212.0000;13141.1500
213.0000;13170.0900
214.0000;13194.3900
215.0000;13217.0000
216.0000;13240.3500
217.0000;13258.9600
218.0000;13280.8700
219.0000;13319.2600
220.0000;13358.7100
221.0000;13395.5300
222.0000;13428.2700
223.0000;13451.2900
224.0000;13472.1400
225.0000;13497.4000
226.0000;13518.0100
227.0000;13542.4500
228.0000;13572.9000
229.0000;13605.5600
230.0000;13648.7600
231.0000;13706.6000
232.0000;13764.8200
233.0000;13817.1500
234.0000;13858.4400
235.0000;13882.1000
236.0000;13903.3100
237.0000;13928.1400
238.0000;13944.4900
239.0000;13960.4600
240.0000;13976.6300
241.0000;13988.6000
242.0000;14001.6300
243.0000;14015.9400
244.0000;14030.2000
245.0000;14050.3300
246.0000;14075.7200
247.0000;14100.9100
248.0000;14126.9700
249.0000;14149.7900
250.0000;14166.7900
251.0000;14184.0400
252.0000;14197.4200
253.0000;14208.3100
254.0000;14227.0800
255.0000;14250.5300
256.0000;14270.0000
257.0000;14282.0700
258.0000;14282.8800
259.0000;14280.6200
260.0000;14286.0100
261.0000;14297.2000
262.0000;14314.5900
263.0000;14339.3700
264.0000;14368.9500
265.0000;14401.4700
266.0000;14441.0700
267.0000;14478.1100
268.0000;14508.1800
269.0000;14533.2000
270.0000;14545.1900
271.0000;14554.6700
272.0000;14573.8800
273.0000;14596.4700
274.0000;14627.2200
275.0000;14677.2500
276.0000;14731.5800
277.0000;14780.6000
278.0000;14823.9200
279.0000;14849.3200
280.0000;14868.6900
281.0000;14898.6000
282.0000;14918.8300
283.0000;14931.1700
284.0000;14934.7000
285.0000;14931.3300
286.0000;14936.3900
287.0000;14957.5300
288.0000;14990.4700
289.0000;15035.7000
290.0000;15096.9900
291.0000;15152.9900
292.0000;15196.1800
293.0000;15216.5300
294.0000;15217.5700
295.0000;15220.7700
296.0000;15229.2900
297.0000;15239.5300
298.0000;15260.2200
299.0000;15291.7900
300.0000;15323.8900
301.0000;15350.9400
302.0000;15365.4300
303.0000;15375.9600
304.0000;15399.4600
305.0000;15431.0900
306.0000;15457.8300
307.0000;15471.1100
308.0000;15467.5000
309.0000;15465.6500
310.0000;15489.2400
311.0000;15530.7100
312.0000;15574.2300
313.0000;15612.3400
314.0000;15637.2300
315.0000;15649.5500
316.0000;15654.7600
317.0000;15648.8800
318.0000;15647.9400
319.0000;15672.1700
320.0000;15707.1600
321.0000;15740.8300
322.0000;15759.4300
323.0000;15770.8000
324.0000;15794.5500
325.0000;15850.0100
326.0000;15909.5600
327.0000;15954.9200
328.0000;15970.9800
329.0000;15965.7700
330.0000;15967.9200
331.0000;15988.9400
332.0000;16019.6200
333.0000;16059.8300
334.0000;16108.3600
335.0000;16157.7900
336.0000;16209.5300
337.0000;16253.0300
338.0000;16289.5600
339.0000;16335.1600
340.0000;16384.7000
341.0000;16424.6700
342.0000;16463.3600
343.0000;16491.1600
344.0000;16507.4900
345.0000;16526.8400
346.0000;16541.5400
347.0000;16553.5100
348.0000;16573.6200
349.0000;16595.7800
350.0000;16617.0700
351.0000;16642.2100
352.0000;16664.2800
353.0000;16682.2200
354.0000;16700.2200
355.0000;16712.8800
356.0000;16726.3800
357.0000;16755.3700
358.0000;16780.6900
359.0000;16794.6700
360.0000;16789.2700
361.0000;16770.9500
362.0000;16757.5800
363.0000;16760.9400
364.0000;16771.5500
365.0000;16782.0700
366.0000;16788.0700
367.0000;16793.2000
368.0000;16799.6300
369.0000;16807.2100
370.0000;16815.2200
371.0000;16823.8500
372.0000;16832.4100
373.0000;16842.7700
374.0000;16859.8000
375.0000;16880.6900
376.0000;16904.6300
377.0000;16929.2200
378.0000;16953.0500
379.0000;16981.0000
380.0000;17025.0800
381.0000;17073.7000
382.0000;17124.5500
383.0000;17186.3500
384.0000;17238.4300
385.0000;17282.4000
386.0000;17325.4000
387.0000;17349.9000
388.0000;17373.1300
389.0000;17408.0900
390.0000;17438.1700
391.0000;17464.3100
392.0000;17487.3300
393.0000;17503.3000
394.0000;17526.3800
395.0000;17558.9900
396.0000;17590.3800
397.0000;17616.0600
398.0000;17631.3900
399.0000;17644.2000
400.0000;17673.8600
401.0000;17719.6300
402.0000;17762.4900
403.0000;17796.9300
404.0000;17813.4900
405.0000;17822.8500
406.0000;17842.8500
407.0000;17865.0600
408.0000;17892.2800
409.0000;17934.3100
410.0000;17976.9800
411.0000;18014.4900
412.0000;18047.7100
413.0000;18064.1100
414.0000;18068.6100
415.0000;18062.2400
416.0000;18050.2000
417.0000;18056.4300
418.0000;18094.8700
419.0000;18151.1100
420.0000;18208.1200
421.0000;18253.5300
422.0000;18291.0200
423.0000;18333.2700
424.0000;18375.4100
425.0000;18406.6400
426.0000;18431.9600
427.0000;18443.0600
428.0000;18440.6700
429.0000;18436.9900
430.0000;18428.1500
431.0000;18417.6500
432.0000;18413.7200
433.0000;18413.8800
434.0000;18409.9700
435.0000;18391.7300
436.0000;18367.1800
437.0000;18348.1000
438.0000;18339.8000
439.0000;18345.0700
440.0000;18357.4400
441.0000;18368.1200
442.0000;18387.7400
443.0000;18421.1200
444.0000;18474.0400
445.0000;18528.9400
446.0000;18575.1000
447.0000;18602.0400
448.0000;18612.6100
449.0000;18623.1000
450.0000;18630.0400
451.0000;18639.5000
452.0000;18669.7800
453.0000;18714.8300
454.0000;18756.9200
455.0000;18791.2500
456.0000;18807.7100
457.0000;18812.8000
458.0000;18814.5700
459.0000;18810.1900
460.0000;18815.2100
461.0000;18847.8900
462.0000;18891.3100
463.0000;18927.9200
464.0000;18939.2000
465.0000;18945.2800
466.0000;18979.2000
467.0000;19055.4600
468.0000;19139.9700
469.0000;19210.8900
470.0000;19256.4400
471.0000;19274.8100
472.0000;19285.0000
473.0000;19279.0900
474.0000;19267.9100
475.0000;19275.0200
476.0000;19296.1200
477.0000;19322.4000
478.0000;19345.2800
479.0000;19366.6400
480.0000;19395.2000
481.0000;19443.3900
482.0000;19495.5300
483.0000;19546.4900
484.0000;19593.8800
485.0000;19628.0200
486.0000;19659.8300
487.0000;19689.9000
488.0000;19712.5400
489.0000;19743.3200
490.0000;19781.2400
491.0000;19813.7300
492.0000;19843.7000
493.0000;19862.8400
494.0000;19868.7500
495.0000;19863.0500
496.0000;19846.1600
497.0000;19840.8000
498.0000;19879.2100
499.0000;19941.3800
500.0000;19989.8000
501.0000;19993.2800
502.0000;19964.1300
503.0000;19936.2600
504.0000;19933.2900
505.0000;19941.5900
506.0000;19954.1600
507.0000;19968.8900
508.0000;19982.3700
509.0000;19983.5300
510.0000;19968.5900
511.0000;19961.8900
512.0000;19994.0400
513.0000;20062.8400
514.0000;20129.4900
515.0000;20160.0800
516.0000;20151.0100
517.0000;20131.4500
518.0000;20135.1900
519.0000;20148.0000
520.0000;20166.8300
521.0000;20190.1300
522.0000;20215.6300
523.0000;20243.5000
524.0000;20276.9300
525.0000;20300.0700
526.0000;20307.7200
527.0000;20292.3000
528.0000;20273.9700
529.0000;20283.0300
530.0000;20323.2300
531.0000;20373.0700
532.0000;20416.6300
533.0000;20446.9700
534.0000;20467.3700
535.0000;20485.8900
536.0000;20493.2500
537.0000;20498.2000
538.0000;20510.3500
539.0000;20524.3200
540.0000;20547.1200
541.0000;20585.4200
542.0000;20625.3000
543.0000;20653.0600
544.0000;20659.1600
545.0000;20662.0100
546.0000;20693.0500
547.0000;20752.2900
548.0000;20817.6700
549.0000;20881.1800
550.0000;20925.9500
551.0000;20954.1000
552.0000;20980.6300
553.0000;20988.0300
554.0000;20983.2000
555.0000;20977.5600
556.0000;20965.8800
557.0000;20960.0500
558.0000;20963.6200
559.0000;20980.8500
560.0000;21014.2600
561.0000;21065.7500
562.0000;21120.5400
563.0000;21160.2900
564.0000;21176.3700
565.0000;21186.2000
566.0000;21220.4300
567.0000;21268.9900
568.0000;21310.8000
569.0000;21340.5100
570.0000;21350.7900
571.0000;21354.2800
572.0000;21369.0600
573.0000;21379.3300
574.0000;21386.6500
575.0000;21390.5400
576.0000;21391.4300
577.0000;21396.8200
578.0000;21408.1800
579.0000;21420.4100
580.0000;21429.8300
581.0000;21434.7300
582.0000;21438.5100
583.0000;21448.3300
584.0000;21460.0200
585.0000;21466.9600
586.0000;21465.4000
587.0000;21456.5000
588.0000;21447.7900
589.0000;21443.2200
590.0000;21445.0400
591.0000;21455.9800
592.0000;21479.1200
593.0000;21504.8600
594.0000;21524.9700
595.0000;21532.9600
596.0000;21535.6000
597.0000;21543.6300
598.0000;21554.2100
599.0000;21564.4500
600.0000;21576.1100
601.0000;21585.9200
602.0000;21596.0500
603.0000;21611.9300
604.0000;21624.2600
605.0000;21629.1400
606.0000;21618.5000
607.0000;21609.4300
608.0000;21626.5900
609.0000;21679.8100
610.0000;21740.5800
611.0000;21778.4400
612.0000;21788.3700
613.0000;21798.4900
614.0000;21848.7800
615.0000;21919.5800
616.0000;21983.6400
617.0000;22029.6300
618.0000;22052.6300
619.0000;22080.2100
620.0000;22136.4300
621.0000;22185.2400
622.0000;22217.8100
623.0000;22220.3100
624.0000;22211.2300
625.0000;22224.0800
626.0000;22259.4500
627.0000;22300.9200
628.0000;22346.7600
629.0000;22386.4200
630.0000;22415.4600
631.0000;22438.0600
632.0000;22445.7300
633.0000;22456.1700
634.0000;22480.2600
635.0000;22507.9400
636.0000;22539.0500
637.0000;22569.4700
638.0000;22598.3600
639.0000;22632.4500
640.0000;22665.2700
641.0000;22691.3200
642.0000;22719.8900
643.0000;22738.9800
644.0000;22748.2500
645.0000;22745.5100
646.0000;22737.8700
647.0000;22752.6400
648.0000;22812.8200
649.0000;22886.0700
650.0000;22941.0200
651.0000;22962.9400
652.0000;22962.5300
653.0000;22970.5200
654.0000;22981.3100
655.0000;22983.0900
656.0000;22968.8700
657.0000;22944.2600
658.0000;22932.0000
659.0000;22953.6200
660.0000;22995.3600
661.0000;23031.7900
662.0000;23046.9300
663.0000;23054.2000
664.0000;23075.6400
665.0000;23114.7000
666.0000;23154.2300
667.0000;23189.0700
668.0000;23209.8500
669.0000;23219.2300
670.0000;23221.4600
671.0000;23214.9600
672.0000;23218.5000
673.0000;23255.3900
674.0000;23300.6100
675.0000;23328.7000
676.0000;23321.6200
677.0000;23302.6700
678.0000;23308.2900
679.0000;23343.2800
680.0000;23376.9800
681.0000;23383.2500
682.0000;23363.4700
683.0000;23349.5200
684.0000;23372.5500
685.0000;23418.0600
686.0000;23465.0600
687.0000;23494.2200
688.0000;23519.7600
689.0000;23568.1200
690.0000;23645.9700
691.0000;23719.4100
692.0000;23771.4800
693.0000;23787.2500
694.0000;23786.1500
695.0000;23798.5500
696.0000;23813.8800
697.0000;23839.0900
698.0000;23884.9900
699.0000;23938.5900
700.0000;23995.0900
701.0000;24050.5100
702.0000;24091.7200
703.0000;24125.7100
704.0000;24142.0400
705.0000;24145.4400
706.0000;24155.0900
707.0000;24163.9100
708.0000;24173.5300
709.0000;24188.3500
710.0000;24205.8200
711.0000;24229.7400
712.0000;24262.6000
713.0000;24296.9000
714.0000;24333.7000
715.0000;24365.9600
716.0000;24392.0600
717.0000;24420.2200
718.0000;24443.1700
719.0000;24463.8700
720.0000;24490.5200
721.0000;24517.1600
722.0000;24553.8200
723.0000;24612.2500
724.0000;24667.6800
725.0000;24708.4400
726.0000;24723.3800
727.0000;24717.6400
728.0000;24713.3800
729.0000;24709.7100
730.0000;24714.7000
731.0000;24745.5600
732.0000;24792.1700
733.0000;24833.6500
734.0000;24850.3500
735.0000;24849.7400
736.0000;24855.5700
737.0000;24879.9700
738.0000;24903.7200
739.0000;24917.8200
740.0000;24918.0000
741.0000;24919.9300
742.0000;24945.0200
743.0000;24983.8300
744.0000;25020.2000
745.0000;25048.9400
746.0000;25060.3700
747.0000;25062.4400
748.0000;25056.9000
749.0000;25042.5000
750.0000;25028.3300
751.0000;25017.0300
752.0000;25010.8900
753.0000;25011.7200
754.0000;25021.0400
755.0000;25033.8000
756.0000;25039.9500
757.0000;25046.9600
758.0000;25064.5700
759.0000;25099.0400
760.0000;25132.0200
761.0000;25148.1200
762.0000;25138.6200
763.0000;25122.3400
764.0000;25122.9100
765.0000;25136.7300
766.0000;25155.2000
767.0000;25174.7300
768.0000;25190.0200
769.0000;25196.5500
770.0000;25189.9300
771.0000;25174.5200
772.0000;25159.3700
773.0000;25147.4600
774.0000;25150.0500
775.0000;25181.4500
776.0000;25235.7200
777.0000;25279.8000
778.0000;25291.9100
779.0000;25277.6800
780.0000;25262.8200
781.0000;25258.1300
782.0000;25261.7100
783.0000;25277.5900
784.0000;25306.0800
785.0000;25346.4200
786.0000;25402.7000
787.0000;25460.8200
788.0000;25495.4000
789.0000;25486.4700
790.0000;25452.6600
791.0000;25445.0700
792.0000;25488.2400
793.0000;25557.5600
794.0000;25631.5100
795.0000;25701.4900
796.0000;25751.6500
797.0000;25782.9300
798.0000;25782.2700
799.0000;25779.5000
800.0000;25802.6600
801.0000;25829.9400
802.0000;25859.0700
803.0000;25884.2400
804.0000;25905.0200
805.0000;25929.1200
806.0000;25948.9200
807.0000;25960.4900
808.0000;25959.9200
809.0000;25951.5800
810.0000;25959.5500
811.0000;26003.0800
812.0000;26056.8900
813.0000;26092.4800
814.0000;26097.8100
815.0000;26088.4000
816.0000;26087.8100
817.0000;26093.4000
818.0000;26108.4000
819.0000;26143.4900
820.0000;26184.6500
821.0000;26213.5600
822.0000;26219.2200
823.0000;26205.7400
824.0000;26184.1100
825.0000;26158.0900
826.0000;26149.6600
827.0000;26183.1800
828.0000;26252.3400
829.0000;26333.3800
830.0000;26408.3100
831.0000;26464.8700
832.0000;26510.2600
833.0000;26543.6600
834.0000;26548.1100
835.0000;26534.0700
836.0000;26499.3400
837.0000;26465.6400
838.0000;26460.0200
839.0000;26478.5000
840.0000;26503.9600
841.0000;26528.0700
842.0000;26550.4600
843.0000;26568.6100
844.0000;26577.8100
845.0000;26580.8000
846.0000;26591.0700
847.0000;26599.4700
848.0000;26593.5300
849.0000;26563.2200
850.0000;26519.9500
851.0000;26484.5600
852.0000;26467.6900
853.0000;26472.9900
854.0000;26494.8300
855.0000;26533.4100
856.0000;26577.0100
857.0000;26612.5600
858.0000;26633.0500
859.0000;26643.3200
860.0000;26645.2800
861.0000;26639.3600
862.0000;26643.7600
863.0000;26661.1000
864.0000;26679.3100
865.0000;26685.5100
866.0000;26682.0200
867.0000;26686.1200
868.0000;26715.5300
869.0000;26754.3800
870.0000;26788.6800
871.0000;26809.5400
872.0000;26817.6200
873.0000;26820.0400
874.0000;26814.9200
875.0000;26816.6200
876.0000;26844.1500
877.0000;26885.7200
878.0000;26922.7000
879.0000;26941.6700
880.0000;26950.0300
881.0000;26965.0100
882.0000;26986.4900
883.0000;27016.0700
884.0000;27063.6600
885.0000;27119.5100
886.0000;27176.0500
887.0000;27230.5800
888.0000;27273.9500
889.0000;27320.3800
890.0000;27366.0700
891.0000;27416.8000
892.0000;27501.8900
893.0000;27599.5100
894.0000;27678.8000
895.0000;27729.4500
896.0000;27740.5900
897.0000;27756.0300
898.0000;27791.8200
899.0000;27825.8900
900.0000;27863.4400
901.0000;27895.4600
902.0000;27915.8900
903.0000;27925.3500
904.0000;27921.9900
905.0000;27928.8500
906.0000;27958.5000
907.0000;27998.8300
908.0000;28044.4600
909.0000;28088.4400
910.0000;28128.6900
911.0000;28171.4500
912.0000;28206.2200
913.0000;28241.5400
914.0000;28289.8100
915.0000;28331.3500
916.0000;28369.2800
917.0000;28396.6900
918.0000;28411.9800
919.0000;28428.3800
920.0000;28437.7000
921.0000;28445.7100
922.0000;28462.4600
923.0000;28478.2500
924.0000;28490.0900
925.0000;28494.7000
926.0000;28503.2200
927.0000;28534.1100
928.0000;28581.9000
929.0000;28624.0000
930.0000;28651.1100
931.0000;28659.6400
932.0000;28666.2000
933.0000;28674.0700
934.0000;28684.4300
935.0000;28711.8100
936.0000;28750.4300
937.0000;28787.8200
938.0000;28819.9100
939.0000;28838.6200
940.0000;28851.3400
941.0000;28859.9200
942.0000;28864.1700
943.0000;28878.5400
944.0000;28900.2300
945.0000;28919.6200
946.0000;28933.2400
947.0000;28936.3500
948.0000;28931.1500
949.0000;28913.8200
950.0000;28905.3100
951.0000;28932.2500
952.0000;28996.6400
953.0000;29075.5500
954.0000;29161.4600
955.0000;29227.9300
956.0000;29268.7800
957.0000;29270.2300
958.0000;29248.3300
959.0000;29255.9900
960.0000;29296.6300
961.0000;29338.9500
962.0000;29357.9400
963.0000;29357.7400
964.0000;29360.2100
965.0000;29378.1200
966.0000;29402.7300
967.0000;29434.9200
968.0000;29471.7700
969.0000;29500.2100
970.0000;29515.0500
971.0000;29514.2100
972.0000;29519.3400
973.0000;29541.5200
974.0000;29575.1400
975.0000;29623.6500
976.0000;29679.7700
977.0000;29740.2300
978.0000;29811.9300
979.0000;29873.2400
980.0000;29914.4000
981.0000;29932.1400
982.0000;29920.7800
983.0000;29903.0200
984.0000;29880.5500
985.0000;29873.3300
986.0000;29911.3200
987.0000;29975.6300
988.0000;30026.2200
989.0000;30028.7800
990.0000;30011.5600
991.0000;30019.0100
992.0000;30054.2000
993.0000;30099.0100
994.0000;30140.0600
995.0000;30175.4200
996.0000;30210.8400
997.0000;30243.5900
998.0000;30281.3400
999.0000;30350.3000
1000.0000;30446.3900
1001.0000;30533.2700
1002.0000;30601.7100
1003.0000;30630.8900
1004.0000;30637.1800
1005.0000;30625.1800
1006.0000;30606.0200
1007.0000;30626.6000
1008.0000;30684.8000
1009.0000;30741.4100
1010.0000;30748.0100
1011.0000;30733.2000
1012.0000;30760.7900
1013.0000;30870.3800
1014.0000;30984.5500
1015.0000;31048.3500
1016.0000;31038.0700
1017.0000;31001.0300
1018.0000;30986.9500
1019.0000;30980.6200
1020.0000;30995.5700
1021.0000;31039.1500
1022.0000;31091.7100
1023.0000;31139.5200
1024.0000;31170.5500
1025.0000;31186.3400
1026.0000;31192.9500
1027.0000;31186.2600
1028.0000;31188.9700
1029.0000;31208.6500
1030.0000;31231.7100
1031.0000;31247.5200
1032.0000;31256.9900
1033.0000;31272.7700
1034.0000;31305.6300
1035.0000;31344.9700
1036.0000;31387.9700
1037.0000;31430.6400
1038.0000;31465.1800
1039.0000;31496.2900
1040.0000;31514.3300
1041.0000;31532.2800
1042.0000;31559.1100
1043.0000;31586.4300
1044.0000;31625.1400
1045.0000;31669.9900
1046.0000;31710.4600
1047.0000;31749.5900
1048.0000;31773.7800
1049.0000;31792.4200
1050.0000;31811.9600
1051.0000;31815.8100
1052.0000;31799.2500
1053.0000;31763.3600
1054.0000;31744.5900
1055.0000;31780.2800
1056.0000;31848.5400
1057.0000;31905.9700
1058.0000;31928.2300
1059.0000;31935.7800
1060.0000;31959.9300
1061.0000;31990.8100
1062.0000;32019.6600
1063.0000;32048.4300
1064.0000;32066.4200
1065.0000;32077.1500
1066.0000;32077.4300
1067.0000;32080.0900
1068.0000;32112.6300
1069.0000;32158.2700
1070.0000;32185.7200
1071.0000;32170.2000
1072.0000;32138.5700
1073.0000;32130.2600
1074.0000;32153.9300
1075.0000;32201.3300
1076.0000;32267.3500
1077.0000;32343.3200
1078.0000;32418.8300
1079.0000;32482.4000
1080.0000;32531.2500
1081.0000;32593.7100
1082.0000;32653.3800
1083.0000;32695.8100
1084.0000;32720.8600
1085.0000;32731.8700
1086.0000;32776.6300
1087.0000;32866.2900
1088.0000;32954.1600
1089.0000;33013.6900
1090.0000;33031.8300
1091.0000;33040.4500
1092.0000;33063.4100
1093.0000;33082.3800
1094.0000;33111.5100
1095.0000;33145.6300
1096.0000;33163.3000
1097.0000;33150.5600
1098.0000;33113.9200
1099.0000;33086.3400
1100.0000;33086.9700
1101.0000;33092.7700
1102.0000;33065.9300
1103.0000;33020.7100
1104.0000;33016.3000
1105.0000;33100.1100
1106.0000;33223.3700
1107.0000;33314.7700
1108.0000;33336.1800
1109.0000;33329.9700
1110.0000;33350.1000
1111.0000;33376.2100
1112.0000;33406.2800
1113.0000;33446.0100
1114.0000;33474.1800
1115.0000;33474.5400
1116.0000;33445.4100
1117.0000;33430.9500
1118.0000;33479.6400
1119.0000;33559.6300
1120.0000;33620.2400
1121.0000;33639.6000
1122.0000;33639.1700
1123.0000;33655.3900
1124.0000;33673.7300
1125.0000;33686.1900
1126.0000;33687.5700
1127.0000;33684.3500
1128.0000;33695.4700
1129.0000;33720.0000
1130.0000;33738.3200
1131.0000;33732.4600
1132.0000;33712.4800
1133.0000;33703.0400
1134.0000;33716.1300
1135.0000;33738.3600
1136.0000;33758.5700
1137.0000;33774.1700
1138.0000;33788.2800
1139.0000;33800.6200
1140.0000;33813.0300
1141.0000;33840.3500
1142.0000;33879.3800
1143.0000;33916.4300
1144.0000;33942.7500
1145.0000;33954.2700
1146.0000;33968.0700
1147.0000;33990.6100
1148.0000;34001.8700
1149.0000;33988.5600
1150.0000;33953.8600
1151.0000;33930.6000
1152.0000;33940.9500
1153.0000;33972.3200
1154.0000;34009.8600
1155.0000;34044.2100
1156.0000;34060.0900
1157.0000;34035.8600
1158.0000;33988.6700
1159.0000;33967.7600
1160.0000;33994.5600
1161.0000;34052.6700
1162.0000;34131.5300
1163.0000;34213.9200
1164.0000;34279.6500
1165.0000;34305.0800
1166.0000;34304.6000
1167.0000;34331.6000
1168.0000;34384.8200
1169.0000;34444.9900
1170.0000;34509.1600
1171.0000;34560.0100
1172.0000;34597.7200
1173.0000;34615.0500
1174.0000;34614.8200
1175.0000;34616.2700
1176.0000;34617.2000
1177.0000;34634.9200
1178.0000;34683.4600
1179.0000;34739.6900
1180.0000;34774.5700
1181.0000;34781.2100
1182.0000;34796.4000
1183.0000;34873.6600
1184.0000;34954.4700
1185.0000;34995.1500
1186.0000;34967.7100
1187.0000;34921.2600
1188.0000;34912.6300
1189.0000;34931.6300
1190.0000;34957.5000
1191.0000;34979.0900
1192.0000;35009.1800
1193.0000;35062.8200
1194.0000;35130.1300
1195.0000;35181.8700
1196.0000;35201.9000
1197.0000;35193.1000
1198.0000;35193.1800
1199.0000;35205.3900
1200.0000;35208.8200
1201.0000;35186.6500
1202.0000;35155.7500
1203.0000;35150.1800
1204.0000;35186.7300
1205.0000;35237.3800
1206.0000;35263.9500
1207.0000;35275.2600
1208.0000;35307.6900
1209.0000;35388.5700
1210.0000;35472.9100
1211.0000;35530.8500
1212.0000;35547.6500
1213.0000;35542.1200
1214.0000;35546.1500
1215.0000;35539.1800
1216.0000;35527.5700
1217.0000;35513.8100
1218.0000;35511.2900
1219.0000;35531.5500
1220.0000;35573.0900
1221.0000;35626.2000
1222.0000;35685.1200
1223.0000;35729.1100
1224.0000;35751.2200
1225.0000;35739.2200
1226.0000;35712.3600
1227.0000;35682.6000
1228.0000;35652.5300
1229.0000;35636.7900
1230.0000;35639.4400
1231.0000;35638.3000
1232.0000;35598.3600
1233.0000;35560.8000
1234.0000;35566.3200
1235.0000;35628.3100
1236.0000;35700.6300
1237.0000;35732.8400
1238.0000;35739.4800
1239.0000;35761.3600
1240.0000;35810.4600
1241.0000;35874.7500
1242.0000;35968.4000
1243.0000;36061.8900
1244.0000;36123.5200
1245.0000;36131.6100
1246.0000;36101.6100
1247.0000;36091.0600
1248.0000;36096.8200
1249.0000;36105.8400
1250.0000;36114.1700
1251.0000;36121.7400
1252.0000;36127.6300
1253.0000;36130.4200
1254.0000;36133.7300
1255.0000;36145.9000
1256.0000;36157.3200
1257.0000;36159.8000
1258.0000;36149.3400
1259.0000;36136.0900
1260.0000;36129.9400
1261.0000;36131.8100
1262.0000;36139.6200
1263.0000;36152.0100
1264.0000;36170.5000
1265.0000;36193.6700
1266.0000;36217.9000
1267.0000;36242.8200
1268.0000;36272.0600
1269.0000;36287.0600
1270.0000;36275.7200
1271.0000;36237.5700
1272.0000;36212.7400
1273.0000;36230.6300
1274.0000;36274.3700
1275.0000;36311.7800
1276.0000;36336.7800
1277.0000;36377.8900
1278.0000;36471.9600
1279.0000;36576.5200
1280.0000;36658.4100
1281.0000;36688.5900
1282.0000;36704.3700
1283.0000;36766.6100
1284.0000;36840.7000
1285.0000;36906.5100
1286.0000;36952.5500
1287.0000;36979.8200
1288.0000;37013.9800
1289.0000;37038.6700
1290.0000;37065.6600
1291.0000;37101.6600
1292.0000;37135.6100
1293.0000;37168.7500
1294.0000;37196.0100
1295.0000;37232.8600
1296.0000;37294.6300
1297.0000;37348.7900
1298.0000;37383.0400
1299.0000;37381.9400
1300.0000;37359.6600
1301.0000;37331.3900
1302.0000;37299.6300
1303.0000;37282.6700
1304.0000;37287.9900
1305.0000;37295.5700
1306.0000;37270.2300
1307.0000;37249.6900
1308.0000;37278.5100
1309.0000;37371.5900
1310.0000;37442.8100
1311.0000;37410.0100
1312.0000;37315.8600
1313.0000;37261.5500
1314.0000;37292.2800
1315.0000;37352.1000
1316.0000;37389.4900
1317.0000;37409.1100
1318.0000;37423.2500
1319.0000;37430.4500
1320.0000;37441.9700
1321.0000;37476.9500
1322.0000;37531.7900
1323.0000;37600.3800
1324.0000;37684.7700
1325.0000;37753.9600
1326.0000;37801.4700
1327.0000;37812.6400
1328.0000;37827.8200
1329.0000;37880.5100
1330.0000;37927.1300
1331.0000;37936.6400
1332.0000;37907.8900
1333.0000;37895.5800
1334.0000;37948.8700
1335.0000;38019.8900
1336.0000;38056.7400
1337.0000;38051.1000
1338.0000;38044.2000
1339.0000;38080.9500
1340.0000;38119.9000
1341.0000;38133.1800
1342.0000;38110.2900
1343.0000;38080.2000
1344.0000;38071.9600
1345.0000;38070.9600
1346.0000;38058.8600
1347.0000;38034.3900
1348.0000;38016.6800
1349.0000;38013.2300
1350.0000;38027.3400
1351.0000;38052.4300
1352.0000;38086.7000
1353.0000;38102.7100
1354.0000;38071.4000
1355.0000;38012.9500
1356.0000;37977.2700
1357.0000;37984.8900
1358.0000;38022.6800
1359.0000;38084.6900
1360.0000;38148.2000
1361.0000;38166.6200
1362.0000;38115.2900
1363.0000;38047.3300
1364.0000;38026.5500
1365.0000;38042.9800
1366.0000;38065.0700
1367.0000;38079.4800
1368.0000;38096.8600
1369.0000;38121.6300
1370.0000;38148.0500
1371.0000;38176.5700
1372.0000;38205.5400
1373.0000;38225.3500
1374.0000;38239.7600
1375.0000;38241.5500
1376.0000;38240.4000
1377.0000;38240.7400
1378.0000;38242.7300
1379.0000;38251.2300
1380.0000;38266.0900
1381.0000;38286.6400
1382.0000;38310.5100
1383.0000;38338.5900
1384.0000;38371.9200
1385.0000;38409.1300
1386.0000;38461.1800
1387.0000;38535.2800
1388.0000;38603.1300
1389.0000;38653.3200
1390.0000;38674.5300
1391.0000;38702.8100
1392.0000;38766.8600
1393.0000;38807.1300
1394.0000;38788.3900
1395.0000;38710.7400
1396.0000;38637.0000
1397.0000;38604.7500
1398.0000;38612.3900
1399.0000;38638.2300
1400.0000;38695.3200
1401.0000;38789.2900
1402.0000;38921.2600
1403.0000;39048.8400
1404.0000;39148.3300
1405.0000;39192.2300
1406.0000;39219.7500
1407.0000;39259.2600
1408.0000;39281.9300
1409.0000;39307.4100
1410.0000;39322.9600
1411.0000;39327.3600
1412.0000;39320.4100
1413.0000;39310.6100
1414.0000;39321.2800
1415.0000;39347.3200
1416.0000;39367.8000
1417.0000;39370.7600
1418.0000;39360.9600
1419.0000;39345.1100
1420.0000;39327.4500
1421.0000;39323.9100
1422.0000;39340.3600
1423.0000;39380.2100
1424.0000;39443.7000
1425.0000;39519.7000
1426.0000;39588.1600
1427.0000;39630.2200
1428.0000;39662.2700
1429.0000;39739.5400
1430.0000;39827.9800
1431.0000;39891.1300
1432.0000;39905.2500
1433.0000;39891.0200
1434.0000;39906.3400
1435.0000;39932.6500
1436.0000;39947.6300
1437.0000;39941.4700
1438.0000;39916.7500
1439.0000;39882.1600
1440.0000;39841.4300
1441.0000;39803.3600
1442.0000;39780.1800
1443.0000;39757.9000
1444.0000;39696.4500
1445.0000;39630.9100
1446.0000;39614.4700
1447.0000;39670.7800
1448.0000;39763.7300
1449.0000;39854.2100
1450.0000;39919.0200
1451.0000;39945.5800
1452.0000;39917.1900
1453.0000;39876.0000
1454.0000;39890.8400
1455.0000;39939.0700
1456.0000;39989.1600
1457.0000;40023.7500
1458.0000;40043.4300
1459.0000;40053.1200
1460.0000;40046.5500
1461.0000;40043.6200
1462.0000;40049.3800
1463.0000;40059.7500
1464.0000;40075.0400
1465.0000;40093.5100
1466.0000;40113.4100
1467.0000;40131.8500
1468.0000;40149.8000
1469.0000;40181.5100
1470.0000;40200.8100
1471.0000;40186.8900
1472.0000;40135.8900
1473.0000;40087.1500
1474.0000;40076.8400
1475.0000;40093.9200
1476.0000;40109.7300
1477.0000;40123.5300
1478.0000;40141.3600
1479.0000;40162.9900
1480.0000;40184.7900
1481.0000;40207.3400
1482.0000;40226.9500
1483.0000;40246.6600
1484.0000;40273.6000
1485.0000;40293.5000
1486.0000;40305.0700
1487.0000;40304.6500
1488.0000;40305.4800
1489.0000;40311.0500
1490.0000;40336.3000
1491.0000;40411.7000
1492.0000;40511.9000
1493.0000;40565.6900
1494.0000;40531.2300
1495.0000;40476.5200
1496.0000;40488.1600
1497.0000;40550.6200
1498.0000;40633.4300
1499.0000;40718.8700
1500.0000;40778.5900
1501.0000;40799.5000
1502.0000;40776.6900
1503.0000;40763.5400
1504.0000;40776.1200
1505.0000;40795.0300
1506.0000;40812.4900
1507.0000;40829.5500
1508.0000;40852.1900
1509.0000;40877.5500
1510.0000;40904.7400
1511.0000;40941.8200
1512.0000;40974.4500
1513.0000;41005.4800
1514.0000;41027.0900
1515.0000;41033.3200
1516.0000;41019.8400
1517.0000;41004.9800
1518.0000;41027.8400
1519.0000;41082.9400
1520.0000;41139.7900
1521.0000;41178.6700
1522.0000;41192.0900
1523.0000;41182.0400
1524.0000;41150.8800
1525.0000;41140.0000
1526.0000;41171.1100
1527.0000;41223.8200
1528.0000;41279.8300
1529.0000;41336.0100
1530.0000;41402.2900
1531.0000;41470.7500
1532.0000;41536.4300
1533.0000;41623.6700
1534.0000;41686.1500
1535.0000;41714.2100
1536.0000;41693.2600
1537.0000;41641.9800
1538.0000;41585.9400
1539.0000;41538.8800
1540.0000;41527.2000
1541.0000;41560.7700
1542.0000;41603.6800
1543.0000;41627.9100
1544.0000;41645.1300
1545.0000;41668.2900
1546.0000;41690.2400
1547.0000;41709.0100
1548.0000;41721.4300
1549.0000;41737.1600
1550.0000;41779.3000
1551.0000;41830.8900
1552.0000;41874.6500
1553.0000;41895.0900
1554.0000;41909.2900
1555.0000;41950.3100
1556.0000;41995.1100
1557.0000;42038.1800
1558.0000;42068.6500
1559.0000;42067.5300
1560.0000;42028.4800
1561.0000;41964.1300
1562.0000;41917.4800
1563.0000;41898.8800
1564.0000;41878.4900
1565.0000;41828.9200
1566.0000;41791.4900
1567.0000;41784.7500
1568.0000;41816.8900
1569.0000;41864.3500
1570.0000;41911.8200
1571.0000;41957.9300
1572.0000;42004.1600
1573.0000;42035.8900
1574.0000;42062.4100
1575.0000;42081.2400
1576.0000;42087.8300
1577.0000;42094.0600
1578.0000;42092.0900
1579.0000;42092.5500
1580.0000;42095.3900
1581.0000;42093.4800
1582.0000;42090.5700
1583.0000;42071.1100
1584.0000;42010.4500
1585.0000;41925.9600
1586.0000;41874.2500
1587.0000;41887.3900
1588.0000;41953.0900
1589.0000;42032.9900
1590.0000;42116.3200
1591.0000;42177.6300
1592.0000;42195.9600
1593.0000;42187.1300
1594.0000;42181.4300
1595.0000;42178.3200
1596.0000;42211.3200
1597.0000;42281.3200
1598.0000;42338.6700
1599.0000;42350.6400
1600.0000;42325.0000
1601.0000;42294.5000
1602.0000;42263.8600
1603.0000;42250.7800
1604.0000;42270.4000
1605.0000;42304.9000
1606.0000;42323.9000
1607.0000;42335.2600
1608.0000;42357.6300
1609.0000;42393.9800
1610.0000;42458.0100
1611.0000;42579.3100
1612.0000;42701.2000
1613.0000;42775.7500
1614.0000;42773.4900
1615.0000;42743.2600
1616.0000;42736.7200
1617.0000;42721.9500
1618.0000;42692.7200
1619.0000;42658.5500
1620.0000;42641.9400
1621.0000;42658.7600
1622.0000;42681.3900
1623.0000;42660.2700
1624.0000;42629.6900
1625.0000;42646.5000
1626.0000;42725.0500
1627.0000;42818.4500
1628.0000;42895.3400
1629.0000;42943.3900
1630.0000;42987.5300
1631.0000;43008.6200
1632.0000;43009.7700
1633.0000;42997.3000
1634.0000;42973.6700
1635.0000;42958.6300
1636.0000;42954.0600
1637.0000;42953.8700
1638.0000;42957.3300
1639.0000;42976.3000
1640.0000;43023.8900
1641.0000;43075.5200
1642.0000;43091.7800
1643.0000;43065.7800
1644.0000;43052.0400
1645.0000;43095.7600
1646.0000;43146.5400
1647.0000;43159.7800
1648.0000;43135.9700
1649.0000;43112.4800
1650.0000;43106.5000
1651.0000;43108.1100
1652.0000;43104.3300
1653.0000;43111.5400
1654.0000;43148.2500
1655.0000;43210.6900
1656.0000;43266.1500
1657.0000;43290.2700
1658.0000;43284.2400
1659.0000;43278.5500
1660.0000;43261.5200
1661.0000;43223.0700
1662.0000;43159.6600
1663.0000;43102.8000
1664.0000;43064.6700
1665.0000;43062.5400
1666.0000;43080.7900
1667.0000;43119.6900
1668.0000;43156.1400
1669.0000;43167.7300
1670.0000;43161.9900
1671.0000;43157.1800
1672.0000;43150.2900
1673.0000;43143.8600
1674.0000;43140.9100
1675.0000;43134.0500
1676.0000;43111.5900
1677.0000;43087.2900
1678.0000;43083.7700
1679.0000;43104.4400
1680.0000;43109.7500
1681.0000;43065.4000
1682.0000;43012.1300
1683.0000;43004.6600
1684.0000;43027.7100
1685.0000;43007.5600
1686.0000;42911.9100
1687.0000;42812.6300
1688.0000;42768.0500
1689.0000;42765.0000
1690.0000;42737.0900
1691.0000;42687.7300
1692.0000;42653.0600
1693.0000;42647.9300
1694.0000;42666.2800
1695.0000;42683.9100
1696.0000;42699.8700
1697.0000;42701.7500
1698.0000;42681.8100
1699.0000;42676.4000
1700.0000;42723.2100
1701.0000;42791.1500
1702.0000;42840.1700
1703.0000;42856.7300
1704.0000;42862.2900
1705.0000;42871.3200
1706.0000;42860.4300
1707.0000;42822.7000
1708.0000;42766.8300
1709.0000;42718.4900
1710.0000;42692.0200
1711.0000;42671.3200
1712.0000;42636.3300
1713.0000;42605.3200
1714.0000;42560.9200
1715.0000;42528.0500
1716.0000;42549.6400
1717.0000;42647.6300
1718.0000;42752.0000
1719.0000;42788.3800
1720.0000;42772.8900
1721.0000;42773.9100
1722.0000;42794.8600
1723.0000;42814.9600
1724.0000;42821.3900
1725.0000;42839.2700
1726.0000;42905.9500
1727.0000;43000.1400
1728.0000;43074.1600
1729.0000;43105.7600
1730.0000;43124.0900
1731.0000;43181.7100
1732.0000;43218.2000
1733.0000;43198.9100
1734.0000;43126.7400
1735.0000;43075.3800
1736.0000;43090.7700
1737.0000;43104.3500
1738.0000;43032.6000
1739.0000;42934.6900
1740.0000;42886.8000
1741.0000;42909.6100
1742.0000;42936.5900
1743.0000;42912.3200
1744.0000;42895.0900
1745.0000;42934.4000
1746.0000;43004.7900
1747.0000;43041.1600
1748.0000;43017.6300
1749.0000;42987.5600
1750.0000;42996.7900
1751.0000;43020.7500
1752.0000;43039.2400
1753.0000;43050.5000
1754.0000;43065.8800
1755.0000;43088.3400
1756.0000;43097.2900
1757.0000;43081.8000
1758.0000;43047.0400
1759.0000;43008.5900
1760.0000;42977.4200
1761.0000;42972.0000
1762.0000;43002.6100
1763.0000;43049.8300
1764.0000;43083.0700
1765.0000;43097.4900
1766.0000;43095.4500
1767.0000;43074.5000
1768.0000;43052.7700
1769.0000;43047.2700
1770.0000;43050.2300
1771.0000;43048.6300
1772.0000;43048.7700
1773.0000;43058.5000
1774.0000;43079.4600
1775.0000;43095.8500
1776.0000;43107.5700
1777.0000;43091.3400
1778.0000;43024.1600
1779.0000;42922.8600
1780.0000;42858.7900
1781.0000;42867.0400
1782.0000;42876.4000
1783.0000;42784.2300
1784.0000;42688.6400
1785.0000;42685.5700
1786.0000;42774.4100
1787.0000;42814.8500
1788.0000;42733.4600
1789.0000;42633.8100
1790.0000;42599.3100
1791.0000;42616.7900
1792.0000;42636.5400
1793.0000;42658.3800
1794.0000;42691.7400
1795.0000;42739.2700
1796.0000;42774.3700
1797.0000;42783.2500
1798.0000;42764.7200
1799.0000;42754.0900
1800.0000;42753.4100
1801.0000;42731.7100
1802.0000;42672.7200
1803.0000;42605.0900
1804.0000;42552.0400
1805.0000;42516.6300
1806.0000;42450.4200
1807.0000;42361.6100
1808.0000;42317.2600
1809.0000;42355.9900
1810.0000;42429.2300
1811.0000;42449.7700
1812.0000;42425.2700
1813.0000;42386.0500
1814.0000;42339.8900
1815.0000;42306.3200
1816.0000;42306.8000
1817.0000;42319.3000
1818.0000;42299.0000
1819.0000;42259.8300
1820.0000;42229.5900
1821.0000;42219.4300
1822.0000;42230.8400
1823.0000;42263.4100
1824.0000;42299.8000
1825.0000;42317.7400
1826.0000;42306.8200
1827.0000;42273.0400
1828.0000;42221.1400
1829.0000;42166.3100
1830.0000;42122.3200
1831.0000;42101.3700
1832.0000;42089.3700
1833.0000;42097.8400
1834.0000;42118.0500
1835.0000;42145.1500
1836.0000;42178.0900
1837.0000;42220.4800
1838.0000;42244.8500
1839.0000;42223.1700
1840.0000;42172.7500
1841.0000;42183.0500
1842.0000;42285.7100
1843.0000;42381.6700
1844.0000;42394.4200
1845.0000;42355.5200
1846.0000;42333.5400
1847.0000;42318.6800
1848.0000;42295.8400
1849.0000;42265.2400
1850.0000;42250.2500
1851.0000;42262.6000
1852.0000;42296.2800
1853.0000;42328.2000
1854.0000;42355.4800
1855.0000;42383.8700
1856.0000;42409.3200
1857.0000;42424.9300
1858.0000;42435.1900
1859.0000;42429.7600
1860.0000;42409.7000
1861.0000;42383.9800
1862.0000;42379.6200
1863.0000;42407.1400
1864.0000;42451.0300
1865.0000;42502.2100
1866.0000;42540.2700
1867.0000;42553.9300
1868.0000;42532.9200
1869.0000;42495.3400
1870.0000;42449.3500
1871.0000;42415.2100
1872.0000;42409.3000
1873.0000;42426.2400
1874.0000;42439.2500
1875.0000;42456.1100
1876.0000;42480.0200
1877.0000;42508.6600
1878.0000;42542.9700
1879.0000;42586.8600
1880.0000;42615.3600
1881.0000;42610.8300
1882.0000;42585.9100
1883.0000;42596.5400
1884.0000;42647.6600
1885.0000;42698.3900
1886.0000;42727.0900
1887.0000;42731.0900
1888.0000;42713.3100
1889.0000;42683.0200
1890.0000;42682.3800
1891.0000;42715.2500
1892.0000;42754.5200
1893.0000;42785.1100
1894.0000;42809.6600
1895.0000;42837.5700
1896.0000;42857.3600
1897.0000;42873.2100
1898.0000;42885.3600
1899.0000;42924.6500
1900.0000;43001.5900
1901.0000;43060.0300
1902.0000;43052.4300
1903.0000;43013.3800
1904.0000;43022.7400
1905.0000;43064.2100
1906.0000;43084.5100
1907.0000;43065.2600
1908.0000;43041.7100
1909.0000;43036.2800
1910.0000;43047.3900
1911.0000;43080.8100
1912.0000;43120.2500
1913.0000;43126.0300
1914.0000;43088.3100
1915.0000;43058.2000
1916.0000;43069.1200
1917.0000;43104.5900
1918.0000;43145.8100
1919.0000;43191.0000
1920.0000;43241.5600
1921.0000;43286.4000
1922.0000;43341.5500
1923.0000;43416.9500
1924.0000;43453.6900
1925.0000;43405.3300
1926.0000;43334.6800
1927.0000;43374.8600
1928.0000;43503.8600
1929.0000;43588.0000
1930.0000;43566.1400
1931.0000;43535.4800
1932.0000;43580.7400
1933.0000;43646.2600
1934.0000;43698.8900
1935.0000;43719.4600
1936.0000;43694.8500
1937.0000;43621.7900
1938.0000;43566.7200
1939.0000;43573.7100
1940.0000;43621.7900
1941.0000;43666.3600
1942.0000;43722.0500
1943.0000;43796.9700
1944.0000;43879.8800
1945.0000;43958.6900
1946.0000;44026.8600
1947.0000;44067.4000
1948.0000;44095.3500
1949.0000;44101.0600
1950.0000;44128.5400
1951.0000;44161.5300
1952.0000;44180.9500
1953.0000;44177.5400
1954.0000;44182.7800
1955.0000;44228.5800
1956.0000;44270.0700
1957.0000;44271.3200
1958.0000;44237.4900
1959.0000;44204.0200
1960.0000;44182.2000
1961.0000;44175.0200
1962.0000;44185.5500
1963.0000;44228.6000
1964.0000;44302.0800
1965.0000;44397.6400
1966.0000;44498.0900
1967.0000;44584.9600
1968.0000;44679.2500
1969.0000;44776.3600
1970.0000;44875.2300
1971.0000;45000.8600
1972.0000;45090.9200
1973.0000;45139.2100
1974.0000;45134.9600
1975.0000;45159.5600
1976.0000;45207.5600
1977.0000;45226.4900
1978.0000;45194.7800
1979.0000;45142.8000
1980.0000;45100.8800
1981.0000;45073.6200
1982.0000;45055.6300
1983.0000;45059.9800
1984.0000;45079.4600
1985.0000;45112.8800
1986.0000;45170.0700
1987.0000;45258.1500
1988.0000;45324.1300
1989.0000;45334.5400
1990.0000;45292.5400
1991.0000;45270.3800
1992.0000;45269.0000
1993.0000;45248.2800
1994.0000;45195.8500
1995.0000;45162.9400
1996.0000;45182.3700
1997.0000;45237.8800
1998.0000;45287.0600
1999.0000;45330.7000
2000.0000;45386.7500
2001.0000;45444.5000
2002.0000;45486.4500
2003.0000;45503.3900
2004.0000;45502.2000
2005.0000;45517.2300
2006.0000;45525.2300
2007.0000;45525.1800
2008.0000;45509.7500
2009.0000;45472.2500
2010.0000;45413.9900
2011.0000;45360.4800
2012.0000;45317.4500
2013.0000;45325.5400
2014.0000;45414.3500
2015.0000;45537.6600
2016.0000;45592.5400
2017.0000;45562.9400
2018.0000;45534.9600
2019.0000;45541.8900
2020.0000;45564.2900
2021.0000;45597.1100
2022.0000;45639.6600
2023.0000;45691.0400
2024.0000;45739.7400
2025.0000;45798.7800
2026.0000;45846.3800
2027.0000;45853.0600
2028.0000;45803.1700
2029.0000;45748.0000
2030.0000;45747.3700
2031.0000;45775.5600
2032.0000;45806.2100
2033.0000;45824.9100
2034.0000;45794.8000
2035.0000;45716.7000
2036.0000;45657.8400
2037.0000;45658.8700
2038.0000;45691.5000
2039.0000;45729.2500
2040.0000;45752.6900
2041.0000;45722.2400
2042.0000;45646.8900
2043.0000;45574.7900
2044.0000;45529.3000
2045.0000;45487.5200
2046.0000;45442.2200
2047.0000;45399.0000
2048.0000;45331.2000
2049.0000;45269.9500
2050.0000;45212.5400
2051.0000;45183.7900
2052.0000;45187.3700
2053.0000;45227.0900
2054.0000;45271.5900
2055.0000;45289.6400
2056.0000;45309.2000
2057.0000;45360.1000
2058.0000;45412.9900
2059.0000;45447.6700
2060.0000;45462.2000
2061.0000;45504.8500
2062.0000;45575.5700
2063.0000;45645.7200
2064.0000;45695.6800
2065.0000;45722.0000
2066.0000;45755.3200
2067.0000;45754.2500
2068.0000;45712.6100
2069.0000;45635.2200
2070.0000;45565.4500
2071.0000;45522.4300
2072.0000;45493.3800
2073.0000;45465.8800
2074.0000;45479.4800
2075.0000;45552.6100
2076.0000;45639.2800
2077.0000;45661.7400
2078.0000;45619.6600
2079.0000;45572.5300
2080.0000;45537.2100
2081.0000;45518.2400
2082.0000;45526.3800
2083.0000;45546.1200
2084.0000;45554.1000
2085.0000;45554.7700
2086.0000;45546.8900
2087.0000;45534.2900
2088.0000;45530.3300
2089.0000;45538.1400
2090.0000;45549.7000
2091.0000;45560.2500
2092.0000;45571.5800
2093.0000;45580.5000
2094.0000;45594.9400
2095.0000;45626.3500
2096.0000;45668.9500
2097.0000;45720.3400
2098.0000;45766.3500
2099.0000;45798.6100
2100.0000;45806.8200
2101.0000;45833.6000
2102.0000;45925.5900
2103.0000;45999.2700
2104.0000;45998.4500
2105.0000;45932.1500
2106.0000;45870.7600
2107.0000;45824.7300
2108.0000;45790.2800
2109.0000;45776.5100
2110.0000;45790.9400
2111.0000;45835.8000
2112.0000;45864.4000
2113.0000;45815.7300
2114.0000;45742.9300
2115.0000;45720.1200
2116.0000;45746.8800
2117.0000;45771.2100
2118.0000;45783.0700
2119.0000;45785.5500
2120.0000;45774.5200
2121.0000;45780.8400
2122.0000;45836.3400
2123.0000;45899.2200
2124.0000;45929.2400
2125.0000;45923.0500
2126.0000;45914.7100
2127.0000;45900.2400
2128.0000;45873.4700
2129.0000;45837.4300
2130.0000;45798.4600
2131.0000;45767.2900
2132.0000;45724.6600
2133.0000;45617.6400
2134.0000;45523.9300
2135.0000;45517.2600
2136.0000;45602.7600
2137.0000;45708.2400
2138.0000;45801.3800
2139.0000;45844.4600
2140.0000;45807.4300
2141.0000;45755.3700
2142.0000;45770.2300
2143.0000;45792.6200
2144.0000;45772.0200
2145.0000;45717.0900
2146.0000;45647.2300
2147.0000;45572.8600
2148.0000;45494.5300
2149.0000;45425.5900
2150.0000;45376.9100
2151.0000;45345.7000
2152.0000;45360.2000
2153.0000;45427.6300
2154.0000;45499.5400
2155.0000;45472.3800
2156.0000;45385.8700
2157.0000;45366.9500
2158.0000;45433.7700
2159.0000;45515.0200
2160.0000;45572.8400
2161.0000;45594.3200
2162.0000;45567.0500
2163.0000;45510.4100
2164.0000;45490.3500
2165.0000;45465.7300
2166.0000;45380.1800
2167.0000;45253.1900
2168.0000;45129.7000
2169.0000;45039.1100
2170.0000;44964.3300
2171.0000;44908.8700
2172.0000;44885.4300
2173.0000;44874.5500
2174.0000;44885.4900
2175.0000;44877.5800
2176.0000;44878.9700
2177.0000;44916.2100
2178.0000;44979.6800
2179.0000;45036.2300
2180.0000;45065.4300
2181.0000;45084.5700
2182.0000;45097.9700
2183.0000;45110.5500
2184.0000;45143.2500
2185.0000;45169.0600
2186.0000;45180.6100
2187.0000;45168.3600
2188.0000;45140.2300
2189.0000;45100.4300
2190.0000;45073.2600
2191.0000;45065.6700
2192.0000;45037.5100
2193.0000;44967.6400
2194.0000;44904.3200
2195.0000;44866.7200
2196.0000;44870.3000
2197.0000;44905.0900
2198.0000;44954.5000
2199.0000;44960.4800
2200.0000;44929.1500
2201.0000;44927.1400
2202.0000;44966.3200
2203.0000;44987.8900
2204.0000;44964.0400
2205.0000;44960.5900
2206.0000;45045.7300
2207.0000;45110.4700
2208.0000;45036.6100
2209.0000;44901.0300
2210.0000;44849.0900
2211.0000;44895.4000
2212.0000;44983.4300
2213.0000;45095.1500
2214.0000;45223.2100
2215.0000;45338.8700
2216.0000;45390.4200
2217.0000;45359.4300
2218.0000;45278.5400
2219.0000;45251.8900
2220.0000;45225.5800
2221.0000;45137.6800
2222.0000;45023.3400
2223.0000;44917.5500
2224.0000;44855.2600
2225.0000;44819.0800
2226.0000;44812.6000
2227.0000;44828.2200
2228.0000;44848.3800
2229.0000;44860.8700
2230.0000;44840.1800
2231.0000;44807.8700
2232.0000;44798.1300
2233.0000;44803.1400
2234.0000;44798.0400
2235.0000;44781.7700
2236.0000;44756.4700
2237.0000;44723.2300
2238.0000;44675.2700
2239.0000;44612.1700
2240.0000;44579.1900
2241.0000;44606.9300
2242.0000;44651.8000
2243.0000;44636.6200
2244.0000;44608.4900
2245.0000;44641.8700
2246.0000;44714.2700
2247.0000;44760.5600
2248.0000;44760.4100
2249.0000;44738.3500
2250.0000;44701.4300
2251.0000;44650.9700
2252.0000;44598.2300
2253.0000;44545.7000
2254.0000;44481.9900
2255.0000;44442.1800
2256.0000;44427.2100
2257.0000;44447.4700
2258.0000;44475.4700
2259.0000;44502.3700
2260.0000;44500.2000
2261.0000;44466.3000
2262.0000;44451.3600
2263.0000;44477.4300
2264.0000;44509.8900
2265.0000;44523.9600
2266.0000;44536.6000
2267.0000;44567.6200
2268.0000;44595.5400
2269.0000;44608.6400
2270.0000;44607.6200
2271.0000;44613.8800
2272.0000;44629.4500
2273.0000;44660.0300
2274.0000;44703.0400
2275.0000;44754.0000
2276.0000;44805.2800
2277.0000;44819.0600
2278.0000;44772.6800
2279.0000;44712.5400
2280.0000;44711.8400
2281.0000;44728.8000
2282.0000;44704.8100
2283.0000;44660.2100
2284.0000;44627.4500
2285.0000;44610.3400
2286.0000;44567.4900
2287.0000;44509.0000
2288.0000;44510.1400
2289.0000;44600.3100
2290.0000;44671.6100
2291.0000;44637.5200
2292.0000;44603.3000
2293.0000;44683.0300
2294.0000;44788.9800
2295.0000;44836.0400
2296.0000;44826.1700
2297.0000;44823.2500
2298.0000;44811.6500
2299.0000;44774.0100
2300.0000;44716.1200
2301.0000;44671.2300
2302.0000;44658.7500
2303.0000;44620.9100
2304.0000;44520.5000
2305.0000;44427.1500
2306.0000;44374.6300
2307.0000;44367.1100
2308.0000;44364.6800
2309.0000;44374.1000
2310.0000;44357.9900
2311.0000;44324.2000
2312.0000;44288.7900
2313.0000;44261.4800
2314.0000;44245.4300
2315.0000;44246.9600
2316.0000;44269.6600
2317.0000;44310.1800
2318.0000;44338.0400
2319.0000;44321.0500
2320.0000;44306.9500
2321.0000;44362.6800
2322.0000;44420.9900
2323.0000;44407.1300
2324.0000;44354.8700
2325.0000;44360.2100
2326.0000;44400.0800
2327.0000;44381.8400
2328.0000;44302.3200
2329.0000;44237.1700
2330.0000;44221.7100
2331.0000;44217.3600
2332.0000;44203.7000
2333.0000;44215.8900
2334.0000;44274.6700
2335.0000;44321.8000
2336.0000;44288.4800
2337.0000;44229.4000
2338.0000;44239.4900
2339.0000;44291.8500
2340.0000;44320.8600
2341.0000;44328.8400
2342.0000;44356.7200
2343.0000;44406.5300
2344.0000;44470.8300
2345.0000;44538.1100
2346.0000;44595.0700
2347.0000;44636.0000
2348.0000;44644.5000
2349.0000;44628.5100
2350.0000;44589.0000
2351.0000;44550.5200
2352.0000;44520.0100
2353.0000;44508.3400
2354.0000;44506.3000
2355.0000;44474.4100
2356.0000;44418.1800
2357.0000;44345.1800
2358.0000;44275.1800
2359.0000;44228.9900
2360.0000;44219.6800
2361.0000;44207.5000
2362.0000;44169.8400
2363.0000;44151.3700
2364.0000;44175.5500
2365.0000;44199.7100
2366.0000;44174.2500
2367.0000;44136.4300
2368.0000;44118.9400
2369.0000;44127.0800
2370.0000;44162.8600
2371.0000;44204.4200
2372.0000;44197.3900
2373.0000;44141.2600
2374.0000;44088.5900
2375.0000;44060.4800
2376.0000;44058.0200
2377.0000;44084.4900
2378.0000;44100.6900
2379.0000;44079.2400
2380.0000;44051.0800
2381.0000;44036.3400
2382.0000;44037.7500
2383.0000;44045.9500
2384.0000;44080.1100
2385.0000;44163.2200
2386.0000;44242.7300
2387.0000;44251.4200
2388.0000;44187.7900
2389.0000;44126.8400
2390.0000;44079.5700
2391.0000;44033.3200
2392.0000;43996.3800
2393.0000;43958.3700
2394.0000;43921.1800
2395.0000;43894.7200
2396.0000;43879.8600
2397.0000;43891.5000
2398.0000;43929.8400
2399.0000;43977.3900
2400.0000;44012.4800
2401.0000;44031.2700
2402.0000;44048.4600
2403.0000;44050.9900
2404.0000;44050.4300
2405.0000;44040.3300
2406.0000;44025.6900
2407.0000;44002.2900
2408.0000;43958.8700
2409.0000;43900.4500
2410.0000;43830.6300
2411.0000;43764.6400
2412.0000;43742.0300
2413.0000;43778.9700
2414.0000;43806.8700
2415.0000;43762.1400
2416.0000;43742.7900
2417.0000;43824.5000
2418.0000;43927.4000
2419.0000;43966.5200
2420.0000;43955.0700
2421.0000;43937.1000
2422.0000;43914.6300
2423.0000;43930.0100
2424.0000;43959.2700
2425.0000;43938.1200
2426.0000;43868.5100
2427.0000;43806.6600
2428.0000;43771.2900
2429.0000;43751.4600
2430.0000;43746.5700
2431.0000;43719.6400
2432.0000;43654.3200
2433.0000;43568.8400
2434.0000;43476.7100
2435.0000;43423.0900
2436.0000;43433.7800
2437.0000;43483.1800
2438.0000;43490.6600
2439.0000;43511.6300
2440.0000;43611.4600
2441.0000;43712.6900
2442.0000;43713.4700
2443.0000;43624.1100
2444.0000;43549.5600
2445.0000;43501.9800
2446.0000;43470.5000
2447.0000;43466.4000
2448.0000;43466.4400
2449.0000;43468.3000
2450.0000;43480.8300
2451.0000;43503.5400
2452.0000;43532.3400
2453.0000;43562.4300
2454.0000;43596.2100
2455.0000;43638.3700
2456.0000;43675.4400
2457.0000;43715.3200
2458.0000;43718.8000
2459.0000;43669.9800
2460.0000;43588.7600
2461.0000;43529.4000
2462.0000;43482.4500
2463.0000;43404.0900
2464.0000;43332.7100
2465.0000;43285.3000
2466.0000;43276.2800
2467.0000;43257.7500
2468.0000;43235.1300
2469.0000;43212.2300
2470.0000;43197.5700
2471.0000;43202.8200
2472.0000;43231.1400
2473.0000;43266.2300
2474.0000;43294.3200
2475.0000;43299.4700
2476.0000;43270.0600
2477.0000;43237.7700
2478.0000;43233.4500
2479.0000;43241.9200
2480.0000;43247.6300
2481.0000;43252.7500
2482.0000;43245.5400
2483.0000;43245.6400
2484.0000;43275.8600
2485.0000;43327.0100
2486.0000;43382.6100
2487.0000;43431.3100
2488.0000;43489.3600
2489.0000;43525.5300
2490.0000;43519.4800
2491.0000;43462.7300
2492.0000;43392.1100
2493.0000;43323.3300
2494.0000;43247.6800
2495.0000;43178.3500
2496.0000;43100.1400
2497.0000;43020.5500
2498.0000;42994.4600
2499.0000;43044.6100
2500.0000;43103.7500
2501.0000;43115.1700
2502.0000;43088.8900
2503.0000;43025.9100
2504.0000;42972.5400
2505.0000;42979.0700
2506.0000;43018.8400
2507.0000;43046.4000
2508.0000;43054.7300
2509.0000;43024.2300
2510.0000;42980.5400
2511.0000;42967.3400
2512.0000;42993.8700
2513.0000;43055.7500
2514.0000;43131.2900
2515.0000;43174.5400
2516.0000;43169.0000
2517.0000;43156.8000
2518.0000;43136.6400
2519.0000;43100.6800
2520.0000;43053.1800
2521.0000;42998.3600
2522.0000;42946.5900
2523.0000;42867.6400
2524.0000;42760.8100
2525.0000;42667.5000
2526.0000;42618.4400
2527.0000;42572.1600
2528.0000;42488.4900
2529.0000;42443.1100
2530.0000;42469.8200
2531.0000;42501.2300
2532.0000;42447.4200
2533.0000;42385.2400
2534.0000;42384.1400
2535.0000;42407.0900
2536.0000;42398.7000
2537.0000;42371.6200
2538.0000;42339.2800
2539.0000;42297.6600
2540.0000;42223.3000
2541.0000;42160.6500
2542.0000;42156.7400
2543.0000;42205.3200
2544.0000;42218.4800
2545.0000;42206.2400
2546.0000;42236.3900
2547.0000;42298.8300
2548.0000;42323.6500
2549.0000;42294.8500
2550.0000;42261.4900
2551.0000;42234.3700
2552.0000;42188.3800
2553.0000;42126.4600
2554.0000;42096.9800
2555.0000;42118.9300
2556.0000;42108.7700
2557.0000;42021.9300
2558.0000;41953.9400
2559.0000;41958.7200
2560.0000;41996.5900
2561.0000;42032.2300
2562.0000;42056.4900
2563.0000;42049.5600
2564.0000;42025.2000
2565.0000;42005.9800
2566.0000;41987.1500
2567.0000;41957.1000
2568.0000;41948.1800
2569.0000;41990.1800
2570.0000;42037.1700
2571.0000;42009.1600
2572.0000;41951.3000
2573.0000;41949.3400
2574.0000;41973.8600
2575.0000;41948.9100
2576.0000;41905.3000
2577.0000;41906.5300
2578.0000;41934.3500
2579.0000;41907.6300
2580.0000;41846.0300
2581.0000;41829.4100
2582.0000;41864.8100
2583.0000;41899.5000
2584.0000;41919.3600
2585.0000;41917.0100
2586.0000;41893.7300
2587.0000;41898.8900
2588.0000;41940.2000
2589.0000;41969.2700
2590.0000;41968.8300
2591.0000;41968.5500
2592.0000;41973.3200
2593.0000;41922.6800
2594.0000;41802.9500
2595.0000;41715.7400
2596.0000;41719.8400
2597.0000;41717.7100
2598.0000;41652.0000
2599.0000;41589.8200
2600.0000;41562.3200
2601.0000;41536.9100
2602.0000;41482.7000
2603.0000;41428.6000
2604.0000;41381.0100
2605.0000;41356.6700
2606.0000;41352.0100
2607.0000;41360.6300
2608.0000;41350.3000
2609.0000;41342.0900
2610.0000;41332.3000
2611.0000;41360.5400
2612.0000;41475.3400
2613.0000;41595.8800
2614.0000;41613.6800
2615.0000;41579.9100
2616.0000;41629.0600
2617.0000;41690.5200
2618.0000;41700.1600
2619.0000;41654.8400
2620.0000;41582.5900
2621.0000;41506.1900
2622.0000;41453.4100
2623.0000;41454.7700
2624.0000;41498.1600
2625.0000;41576.1900
2626.0000;41647.0400
2627.0000;41686.1600
2628.0000;41696.0800
2629.0000;41668.5600
2630.0000;41634.8700
2631.0000;41609.4600
2632.0000;41623.5600
2633.0000;41665.7700
2634.0000;41660.8900
2635.0000;41592.2700
2636.0000;41466.9100
2637.0000;41323.2500
2638.0000;41223.3500
2639.0000;41202.6300
2640.0000;41180.2700
2641.0000;41156.1900
2642.0000;41176.9800
2643.0000;41247.0400
2644.0000;41301.0200
2645.0000;41313.5900
2646.0000;41328.5400
2647.0000;41352.7100
2648.0000;41369.0500
2649.0000;41367.3400
2650.0000;41319.4900
2651.0000;41221.3400
2652.0000;41133.7300
2653.0000;41092.4800
2654.0000;41082.0200
2655.0000;41093.2700
2656.0000;41102.4800
2657.0000;41088.8600
2658.0000;41097.2800
2659.0000;41147.2900
2660.0000;41147.0300
2661.0000;41043.7100
2662.0000;41002.8800
2663.0000;41131.7700
2664.0000;41229.0700
2665.0000;41152.8200
2666.0000;41051.7000
2667.0000;41025.8600
2668.0000;41005.2000
2669.0000;40949.9700
2670.0000;40888.4600
2671.0000;40823.1800
2672.0000;40783.7600
2673.0000;40783.8300
2674.0000;40775.0000
2675.0000;40697.6400
2676.0000;40634.1800
2677.0000;40638.6300
2678.0000;40663.7900
2679.0000;40657.4500
2680.0000;40626.5600
2681.0000;40565.8000
2682.0000;40511.5100
2683.0000;40495.3600
2684.0000;40486.2700
2685.0000;40436.1100
2686.0000;40388.0200
2687.0000;40377.4500
2688.0000;40358.0600
2689.0000;40268.3400
2690.0000;40177.0500
2691.0000;40137.4700
2692.0000;40140.3800
2693.0000;40135.9500
2694.0000;40151.6900
2695.0000;40178.9000
2696.0000;40225.8100
2697.0000;40297.0500
2698.0000;40362.9800
2699.0000;40412.8900
2700.0000;40428.0600
2701.0000;40421.8600
2702.0000;40411.0400
2703.0000;40454.1900
2704.0000;40490.8700
2705.0000;40467.3500
2706.0000;40407.7500
2707.0000;40348.2400
2708.0000;40311.4300
2709.0000;40316.2300
2710.0000;40340.1100
2711.0000;40331.1900
2712.0000;40301.7300
2713.0000;40263.4100
2714.0000;40214.6400
2715.0000;40147.5400
2716.0000;40094.1300
2717.0000;40068.0800
2718.0000;40057.2700
2719.0000;40013.9600
2720.0000;39962.3200
2721.0000;39904.8900
2722.0000;39856.9600
2723.0000;39808.9500
2724.0000;39777.2700
2725.0000;39741.9700
2726.0000;39721.1100
2727.0000;39697.9500
2728.0000;39690.2800
2729.0000;39688.3600
2730.0000;39709.4800
2731.0000;39755.4200
2732.0000;39810.6800
2733.0000;39854.8600
2734.0000;39883.1200
2735.0000;39916.2900
2736.0000;39918.3900
2737.0000;39882.9200
2738.0000;39824.1800
2739.0000;39778.9800
2740.0000;39719.2900
2741.0000;39601.1100
2742.0000;39514.1400
2743.0000;39499.0400
2744.0000;39559.4200
2745.0000;39652.2600
2746.0000;39749.7200
2747.0000;39808.3800
2748.0000;39835.0800
2749.0000;39864.8000
2750.0000;39869.3200
2751.0000;39853.5000
2752.0000;39828.4900
2753.0000;39817.6300
2754.0000;39802.9600
2755.0000;39774.8400
2756.0000;39731.7000
2757.0000;39675.5000
2758.0000;39609.1200
2759.0000;39538.0500
2760.0000;39479.3800
2761.0000;39442.8800
2762.0000;39407.2500
2763.0000;39349.3800
2764.0000;39341.0000
2765.0000;39413.2100
2766.0000;39490.7500
2767.0000;39513.5700
2768.0000;39543.0600
2769.0000;39602.8900
2770.0000;39622.7200
2771.0000;39573.3800
2772.0000;39522.1800
2773.0000;39509.7300
2774.0000;39449.6800
2775.0000;39320.9900
2776.0000;39218.5000
2777.0000;39184.4600
2778.0000;39136.2500
2779.0000;39055.7600
2780.0000;39030.9200
2781.0000;39085.4500
2782.0000;39137.7500
2783.0000;39161.5100
2784.0000;39236.2600
2785.0000;39360.9600
2786.0000;39462.0300
2787.0000;39494.6900
2788.0000;39477.3800
2789.0000;39407.7600
2790.0000;39319.2400
2791.0000;39242.4300
2792.0000;39192.6700
2793.0000;39183.0600
2794.0000;39145.6900
2795.0000;39098.3200
2796.0000;39087.7200
2797.0000;39115.9400
2798.0000;39126.4200
2799.0000;39115.8100
2800.0000;39097.4400
2801.0000;39074.6400
2802.0000;39055.9800
2803.0000;39036.4100
2804.0000;38990.5400
2805.0000;38929.9000
2806.0000;38859.8500
2807.0000;38803.1400
2808.0000;38747.0400
2809.0000;38729.9900
2810.0000;38764.9500
2811.0000;38809.7700
2812.0000;38767.3100
2813.0000;38705.9800
2814.0000;38717.4300
2815.0000;38782.0400
2816.0000;38851.7100
2817.0000;38940.0000
2818.0000;39068.9900
2819.0000;39154.8800
2820.0000;39159.5400
2821.0000;39093.4000
2822.0000;39015.1400
2823.0000;38944.9100
2824.0000;38915.7200
2825.0000;38917.6500
2826.0000;38930.4300
2827.0000;38962.1200
2828.0000;39004.3200
2829.0000;38995.6300
2830.0000;38906.1500
2831.0000;38853.3900
2832.0000;38899.5600
2833.0000;38948.5300
2834.0000;38962.4500
2835.0000;38998.8800
2836.0000;39061.0000
2837.0000;39111.4600
2838.0000;39113.3200
2839.0000;39007.4400
2840.0000;38813.3900
2841.0000;38670.8900
2842.0000;38637.6700
2843.0000;38618.7900
2844.0000;38611.9300
2845.0000;38555.3600
2846.0000;38488.7400
2847.0000;38505.0500
2848.0000;38583.7700
2849.0000;38597.1000
2850.0000;38576.6300
2851.0000;38618.3600
2852.0000;38679.5300
2853.0000;38704.8700
2854.0000;38687.7700
2855.0000;38656.2700
2856.0000;38607.4000
2857.0000;38546.0800
2858.0000;38509.7900
2859.0000;38513.7600
2860.0000;38549.2600
2861.0000;38585.0200
2862.0000;38610.2500
2863.0000;38611.9100
2864.0000;38603.3800
2865.0000;38601.8900
2866.0000;38601.4300
2867.0000;38602.6100
2868.0000;38592.9700
2869.0000;38568.8400
2870.0000;38551.5400
2871.0000;38549.7100
2872.0000;38520.7600
2873.0000;38456.3800
2874.0000;38385.1900
2875.0000;38324.8600
2876.0000;38266.6200
2877.0000;38228.1400
2878.0000;38219.3200
2879.0000;38236.9000
2880.0000;38222.3600
2881.0000;38185.8700
2882.0000;38159.8600
2883.0000;38162.5300
2884.0000;38202.9400
2885.0000;38264.9600
2886.0000;38307.9600
2887.0000;38331.9700
2888.0000;38378.3800
2889.0000;38380.8000
2890.0000;38291.8800
2891.0000;38195.1400
2892.0000;38187.4900
2893.0000;38213.4300
2894.0000;38216.4400
2895.0000;38210.7100
2896.0000;38193.3200
2897.0000;38178.4500
2898.0000;38176.9600
2899.0000;38237.4900
2900.0000;38368.4300
2901.0000;38476.3700
2902.0000;38510.1800
2903.0000;38518.3600
2904.0000;38506.1900
2905.0000;38501.2200
2906.0000;38504.1500
2907.0000;38503.3700
2908.0000;38482.6000
2909.0000;38404.4100
2910.0000;38299.0000
2911.0000;38221.4300
2912.0000;38192.4300
2913.0000;38171.4000
2914.0000;38176.6300
2915.0000;38178.2100
2916.0000;38190.5300
2917.0000;38218.8900
2918.0000;38228.1700
2919.0000;38189.5900
2920.0000;38137.1700
2921.0000;38106.3200
2922.0000;38066.0900
2923.0000;38002.9900
2924.0000;37984.0000
2925.0000;38032.6300
2926.0000;38051.5300
2927.0000;38003.5100
2928.0000;37915.0000
2929.0000;37817.7900
2930.0000;37782.0800
2931.0000;37814.7100
2932.0000;37796.9300
2933.0000;37742.9700
2934.0000;37707.8600
2935.0000;37709.1300
2936.0000;37753.6300
2937.0000;37798.8300
2938.0000;37762.4300
2939.0000;37687.1300
2940.0000;37641.2400
2941.0000;37612.5900
2942.0000;37582.8200
2943.0000;37577.6500
2944.0000;37601.2500
2945.0000;37617.6700
2946.0000;37601.0100
2947.0000;37603.4400
2948.0000;37641.3500
2949.0000;37641.3600
2950.0000;37579.7200
2951.0000;37486.6800
2952.0000;37384.3400
2953.0000;37284.0900
2954.0000;37210.5600
2955.0000;37101.7200
2956.0000;37022.7900
2957.0000;37015.3200
2958.0000;37080.8400
2959.0000;37133.2900
2960.0000;37181.3300
2961.0000;37240.2800
2962.0000;37240.2000
2963.0000;37137.3700
2964.0000;37045.7100
2965.0000;37068.4300
2966.0000;37127.8700
2967.0000;37170.4300
2968.0000;37215.5900
2969.0000;37252.9600
2970.0000;37284.9500
2971.0000;37299.3900
2972.0000;37285.7600
2973.0000;37243.9500
2974.0000;37209.6500
2975.0000;37174.0300
2976.0000;37083.8200
2977.0000;36988.1700
2978.0000;36931.9900
2979.0000;36931.8000
2980.0000;36942.6400
2981.0000;36966.9100
2982.0000;36971.3900
2983.0000;36976.0300
2984.0000;36992.6200
2985.0000;37018.4600
2986.0000;37049.9400
2987.0000;37059.1600
2988.0000;37039.6400
2989.0000;37053.1800
2990.0000;37107.5000
2991.0000;37153.6900
2992.0000;37168.9700
2993.0000;37151.5500
2994.0000;37111.0900
2995.0000;37106.2700
2996.0000;37104.5900
2997.0000;37037.2700
2998.0000;36960.1900
2999.0000;36919.0200
3000.0000;36920.0000
3001.0000;36947.1400
3002.0000;36973.4400
3003.0000;36967.7100
3004.0000;36960.8700
3005.0000;36961.6600
3006.0000;36926.4100
3007.0000;36852.9100
3008.0000;36775.1300
3009.0000;36718.0900
3010.0000;36677.9500
3011.0000;36658.8000
3012.0000;36603.2300
3013.0000;36555.9200
3014.0000;36551.8200
3015.0000;36586.3900
3016.0000;36625.6100
3017.0000;36651.6700
3018.0000;36643.9800
3019.0000;36616.1500
3020.0000;36585.1400
3021.0000;36560.6400
3022.0000;36549.7100
3023.0000;36514.8800
3024.0000;36458.0100
3025.0000;36406.1700
3026.0000;36377.0500
3027.0000;36362.8400
3028.0000;36357.8600
3029.0000;36322.1900
3030.0000;36266.5900
3031.0000;36191.6600
3032.0000;36132.4900
3033.0000;36104.5600
3034.0000;36109.5000
3035.0000;36129.8100
3036.0000;36129.4000
3037.0000;36090.7900
3038.0000;36085.1000
3039.0000;36125.3600
3040.0000;36146.2800
3041.0000;36138.0900
3042.0000;36137.0300
3043.0000;36131.7000
3044.0000;36105.6500
3045.0000;36060.1900
3046.0000;35993.5500
3047.0000;35952.4900
3048.0000;35976.7900
3049.0000;35977.2900
3050.0000;35886.0100
3051.0000;35807.2100
3052.0000;35788.5500
3053.0000;35775.2900
3054.0000;35763.1000
3055.0000;35771.5600
3056.0000;35788.5000
3057.0000;35759.7100
3058.0000;35711.1000
3059.0000;35703.1500
3060.0000;35716.6800
3061.0000;35703.6700
3062.0000;35698.8200
3063.0000;35723.0400
3064.0000;35745.6300
3065.0000;35746.0600
3066.0000;35762.1500
3067.0000;35794.8800
3068.0000;35775.0800
3069.0000;35696.7600
3070.0000;35615.8900
3071.0000;35561.3400
3072.0000;35526.2100
3073.0000;35531.2000
3074.0000;35552.6800
3075.0000;35576.0100
3076.0000;35566.9900
3077.0000;35544.9100
3078.0000;35526.3700
3079.0000;35465.5700
3080.0000;35363.2300
3081.0000;35306.9700
3082.0000;35322.1400
3083.0000;35328.7000
3084.0000;35328.7900
3085.0000;35333.7100
3086.0000;35353.7900
3087.0000;35408.7000
3088.0000;35452.7100
3089.0000;35441.9200
3090.0000;35403.7800
3091.0000;35370.9400
3092.0000;35373.8000
3093.0000;35426.1500
3094.0000;35480.7900
3095.0000;35517.6200
3096.0000;35567.1600
3097.0000;35600.3800
3098.0000;35592.7600
3099.0000;35536.3000
3100.0000;35445.4000
3101.0000;35384.2500
3102.0000;35411.7900
3103.0000;35467.3900
3104.0000;35490.2100
3105.0000;35515.5200
3106.0000;35544.5100
3107.0000;35571.0000
3108.0000;35565.4900
3109.0000;35459.0100
3110.0000;35315.5800
3111.0000;35289.8000
3112.0000;35325.5300
3113.0000;35277.8600
3114.0000;35202.2400
3115.0000;35128.1800
3116.0000;35076.5400
3117.0000;35061.6400
3118.0000;35005.4300
3119.0000;34908.2900
3120.0000;34873.0200
3121.0000;34898.9600
3122.0000;34856.9000
3123.0000;34786.6900
3124.0000;34758.8000
3125.0000;34736.1700
3126.0000;34661.1000
3127.0000;34603.8100
3128.0000;34602.4400
3129.0000;34594.5400
3130.0000;34554.7800
3131.0000;34492.3200
3132.0000;34425.4100
3133.0000;34382.1400
3134.0000;34368.6600
3135.0000;34342.5100
3136.0000;34313.5800
3137.0000;34260.7600
3138.0000;34244.7800
3139.0000;34294.9000
3140.0000;34366.4700
3141.0000;34420.9900
3142.0000;34473.4000
3143.0000;34506.0000
3144.0000;34514.3900
3145.0000;34509.9100
3146.0000;34561.2200
3147.0000;34613.9400
3148.0000;34613.8400
3149.0000;34572.6500
3150.0000;34517.8000
3151.0000;34449.3900
3152.0000;34379.1200
3153.0000;34291.5900
3154.0000;34202.8600
3155.0000;34119.6600
3156.0000;34076.2000
3157.0000;34054.5400
3158.0000;34067.5900
3159.0000;34080.5500
3160.0000;34099.2800
3161.0000;34116.7100
3162.0000;34065.3000
3163.0000;33935.1000
3164.0000;33863.2300
3165.0000;33885.3000
3166.0000;33899.5900
3167.0000;33912.2000
3168.0000;33942.1200
3169.0000;33950.5600
3170.0000;33902.2700
3171.0000;33837.2600
3172.0000;33796.1100
3173.0000;33765.0200
3174.0000;33744.8400
3175.0000;33726.1300
3176.0000;33716.5100
3177.0000;33728.9300
3178.0000;33739.9900
3179.0000;33691.6300
3180.0000;33647.7300
3181.0000;33669.4800
3182.0000;33700.0700
3183.0000;33700.7700
3184.0000;33707.1600
3185.0000;33723.4100
3186.0000;33734.0700
3187.0000;33739.3000
3188.0000;33757.9300
3189.0000;33772.7700
3190.0000;33765.4900
3191.0000;33758.3500
3192.0000;33773.2400
3193.0000;33776.5300
3194.0000;33755.6700
3195.0000;33722.5000
3196.0000;33697.5900
3197.0000;33723.8000
3198.0000;33770.9100
3199.0000;33765.5900
3200.0000;33719.5300
3201.0000;33662.5800
3202.0000;33605.9000
3203.0000;33568.3400
3204.0000;33553.4200
3205.0000;33563.7700
3206.0000;33573.3200
3207.0000;33575.2600
3208.0000;33562.6600
3209.0000;33543.6600
3210.0000;33530.4000
3211.0000;33530.4700
3212.0000;33545.5100
3213.0000;33522.6700
3214.0000;33459.6100
3215.0000;33456.3900
3216.0000;33502.3500
3217.0000;33492.5900
3218.0000;33439.9100
3219.0000;33381.6500
3220.0000;33331.1700
3221.0000;33303.9900
3222.0000;33245.5900
3223.0000;33154.9400
3224.0000;33167.7800
3225.0000;33257.8300
3226.0000;33222.2400
3227.0000;33117.8900
3228.0000;33081.8300
3229.0000;33046.2900
3230.0000;32954.7000
3231.0000;32871.9200
3232.0000;32829.7900
3233.0000;32821.9800
3234.0000;32834.3300
3235.0000;32786.9700
3236.0000;32709.1900
3237.0000;32653.4000
3238.0000;32620.3100
3239.0000;32599.2800
3240.0000;32596.8800
3241.0000;32601.4700
3242.0000;32541.0700
3243.0000;32441.1700
3244.0000;32413.5800
3245.0000;32459.8700
3246.0000;32521.8100
3247.0000;32562.1800
3248.0000;32540.8300
3249.0000;32466.5400
3250.0000;32371.9300
3251.0000;32330.6000
3252.0000;32361.8700
3253.0000;32373.3100
3254.0000;32400.3800
3255.0000;32493.5400
3256.0000;32569.2300
3257.0000;32565.3200
3258.0000;32552.2900
3259.0000;32555.4400
3260.0000;32541.2700
3261.0000;32509.3800
3262.0000;32477.7200
3263.0000;32429.4400
3264.0000;32339.5300
3265.0000;32229.6800
3266.0000;32125.4100
3267.0000;32132.6900
3268.0000;32255.3100
3269.0000;32317.0400
3270.0000;32298.9200
3271.0000;32281.3100
3272.0000;32251.1100
3273.0000;32221.7000
3274.0000;32179.0500
3275.0000;32121.2400
3276.0000;32031.2800
3277.0000;31947.1900
3278.0000;31939.3400
3279.0000;32012.4000
3280.0000;32110.5500
3281.0000;32149.2900
3282.0000;32051.7400
3283.0000;32010.2900
3284.0000;32095.9100
3285.0000;32159.3800
3286.0000;32165.2900
3287.0000;32131.9000
3288.0000;32075.4400
3289.0000;32039.3100
3290.0000;32040.7900
3291.0000;32077.0700
3292.0000;31995.8700
3293.0000;31806.2600
3294.0000;31737.2300
3295.0000;31763.6700
3296.0000;31685.3000
3297.0000;31583.7200
3298.0000;31506.2300
3299.0000;31460.7600
3300.0000;31455.2200
3301.0000;31483.3800
3302.0000;31532.0300
3303.0000;31562.4600
3304.0000;31579.3700
3305.0000;31606.8600
3306.0000;31624.8900
3307.0000;31624.3600
3308.0000;31557.7900
3309.0000;31436.2700
3310.0000;31341.2900
3311.0000;31290.4000
3312.0000;31225.7100
3313.0000;31200.0400
3314.0000;31214.9600
3315.0000;31211.2300
3316.0000;31173.7100
3317.0000;31194.4000
3318.0000;31248.1500
3319.0000;31231.2200
3320.0000;31185.2400
3321.0000;31171.5000
3322.0000;31163.1400
3323.0000;31151.3900
3324.0000;31139.7900
3325.0000;31118.2100
3326.0000;31048.0900
3327.0000;30976.7200
3328.0000;30963.1900
3329.0000;30974.5300
3330.0000;30976.9500
3331.0000;30968.6100
3332.0000;30952.2400
3333.0000;30958.4100
3334.0000;30955.6400
3335.0000;30870.9200
3336.0000;30828.7500
3337.0000;30911.3900
3338.0000;30975.2100
3339.0000;30960.9000
3340.0000;30910.7000
3341.0000;30842.8900
3342.0000;30779.8300
3343.0000;30770.4400
3344.0000;30832.7500
3345.0000;30873.0400
3346.0000;30854.1300
3347.0000;30854.8300
3348.0000;30888.2400
3349.0000;30967.8600
3350.0000;31037.3100
3351.0000;31049.7900
3352.0000;30960.4900
3353.0000;30794.2900
3354.0000;30711.1900
3355.0000;30749.4300
3356.0000;30820.9700
3357.0000;30877.7500
3358.0000;30844.8600
3359.0000;30778.8700
3360.0000;30730.7600
3361.0000;30773.4600
3362.0000;30866.5500
3363.0000;30838.9000
3364.0000;30776.8800
3365.0000;30802.2800
3366.0000;30834.3300
3367.0000;30836.0200
3368.0000;30813.4900
3369.0000;30776.2100
3370.0000;30751.6700
3371.0000;30742.5900
3372.0000;30738.0600
3373.0000;30756.8900
3374.0000;30791.9700
3375.0000;30790.2000
3376.0000;30742.2900
3377.0000;30682.7600
3378.0000;30618.5800
3379.0000;30561.8700
3380.0000;30467.3400
3381.0000;30350.7300
3382.0000;30339.4500
3383.0000;30421.4100
3384.0000;30423.5200
3385.0000;30412.7900
3386.0000;30449.5600
3387.0000;30474.7200
3388.0000;30468.3300
3389.0000;30461.0600
3390.0000;30463.7000
3391.0000;30505.8600
3392.0000;30515.6800
3393.0000;30437.7500
3394.0000;30345.4600
3395.0000;30284.9600
3396.0000;30261.1600
3397.0000;30273.1800
3398.0000;30269.7000
3399.0000;30240.6000
3400.0000;30176.9900
3401.0000;30149.1000
3402.0000;30167.9900
3403.0000;30139.7100
3404.0000;30074.4700
3405.0000;29993.6100
3406.0000;29963.5500
3407.0000;30018.9500
3408.0000;30059.5400
3409.0000;30056.2100
3410.0000;30036.8600
3411.0000;30004.2100
3412.0000;29975.8800
3413.0000;29929.8300
3414.0000;29866.0900
3415.0000;29806.2700
3416.0000;29767.4300
3417.0000;29716.3500
3418.0000;29698.0100
3419.0000;29727.4400
3420.0000;29756.6600
3421.0000;29758.9800
3422.0000;29763.2100
3423.0000;29768.8200
3424.0000;29781.8500
3425.0000;29780.4800
3426.0000;29753.0700
3427.0000;29728.2300
3428.0000;29712.2300
3429.0000;29668.5300
3430.0000;29629.1200
3431.0000;29631.1000
3432.0000;29619.9400
3433.0000;29570.9000
3434.0000;29564.9000
3435.0000;29597.0200
3436.0000;29587.1700
3437.0000;29573.7700
3438.0000;29595.3500
3439.0000;29577.3300
3440.0000;29507.0600
3441.0000;29460.3100
3442.0000;29432.9900
3443.0000;29364.0500
3444.0000;29327.9900
3445.0000;29358.9000
3446.0000;29386.3800
3447.0000;29395.9500
3448.0000;29427.6800
3449.0000;29453.2000
3450.0000;29449.8200
3451.0000;29417.8700
3452.0000;29368.2200
3453.0000;29314.1300
3454.0000;29259.6000
3455.0000;29170.2100
3456.0000;29103.6200
3457.0000;29084.1300
3458.0000;29045.5400
3459.0000;28992.1200
3460.0000;28972.1600
3461.0000;28997.1900
3462.0000;29048.9500
3463.0000;29103.0700
3464.0000;29129.6300
3465.0000;29111.3100
3466.0000;29060.4000
3467.0000;29022.6300
3468.0000;29030.6500
3469.0000;29092.9600
3470.0000;29077.3300
3471.0000;28980.5100
3472.0000;28929.3000
3473.0000;28928.3400
3474.0000;28947.1400
3475.0000;28984.8500
3476.0000;29015.7300
3477.0000;28983.7800
3478.0000;28913.0200
3479.0000;28885.0900
3480.0000;28831.0000
3481.0000;28718.4200
3482.0000;28670.1400
3483.0000;28689.5700
3484.0000;28637.8600
3485.0000;28575.1700
3486.0000;28550.2300
3487.0000;28523.7200
3488.0000;28479.1400
3489.0000;28366.6200
3490.0000;28285.8400
3491.0000;28356.8400
3492.0000;28435.2600
3493.0000;28434.0700
3494.0000;28473.9500
3495.0000;28524.0000
3496.0000;28500.4200
3497.0000;28483.8200
3498.0000;28539.3000
3499.0000;28577.9700
3500.0000;28568.9800
3501.0000;28534.6300
3502.0000;28469.9800
3503.0000;28391.4600
3504.0000;28325.8600
3505.0000;28291.9500
3506.0000;28234.2200
3507.0000;28187.3100
3508.0000;28177.0700
3509.0000;28173.9200
3510.0000;28155.5400
3511.0000;28137.4800
3512.0000;28115.4300
3513.0000;28075.0200
3514.0000;28005.3800
3515.0000;27913.4600
3516.0000;27887.3600
3517.0000;27933.0300
3518.0000;27943.9700
3519.0000;27946.8200
3520.0000;27959.0100
3521.0000;27964.5400
3522.0000;27963.6300
3523.0000;27986.8400
3524.0000;27987.6200
3525.0000;27920.0300
3526.0000;27818.6600
3527.0000;27724.8200
3528.0000;27664.6600
3529.0000;27653.8900
3530.0000;27652.7500
3531.0000;27645.6300
3532.0000;27614.9500
3533.0000;27574.7300
3534.0000;27537.2300
3535.0000;27500.3200
3536.0000;27507.2400
3537.0000;27566.9400
3538.0000;27604.4900
3539.0000;27616.4000
3540.0000;27661.1700
3541.0000;27694.1100
3542.0000;27691.1300
3543.0000;27654.1600
3544.0000;27596.8200
3545.0000;27567.4200
3546.0000;27502.1500
3547.0000;27358.3400
3548.0000;27259.6100
3549.0000;27252.6500
3550.0000;27252.1100
3551.0000;27247.9300
3552.0000;27204.7700
3553.0000;27164.0100
3554.0000;27145.8200
3555.0000;27148.4000
3556.0000;27148.0400
3557.0000;27105.5200
3558.0000;27077.5700
3559.0000;27076.8700
3560.0000;27045.4800
3561.0000;27004.6700
3562.0000;26982.3400
3563.0000;26910.2600
3564.0000;26798.8500
3565.0000;26759.4500
3566.0000;26774.9900
3567.0000;26752.4100
3568.0000;26722.1900
3569.0000;26701.7500
3570.0000;26737.6600
3571.0000;26793.8600
3572.0000;26797.9900
3573.0000;26780.6600
3574.0000;26757.6700
3575.0000;26712.7000
3576.0000;26667.7300
3577.0000;26645.0100
3578.0000;26655.4800
3579.0000;26687.5900
3580.0000;26686.5800
3581.0000;26657.2500
3582.0000;26635.7300
3583.0000;26599.5900
3584.0000;26546.5300
3585.0000;26476.5200
3586.0000;26409.8500
3587.0000;26346.7000
3588.0000;26329.2700
3589.0000;26361.0100
3590.0000;26366.6200
3591.0000;26362.8200
3592.0000;26394.9200
3593.0000;26394.4800
3594.0000;26358.8500
3595.0000;26457.9500
3596.0000;26616.5100
3597.0000;26676.3000
3598.0000;26690.7500
3599.0000;26684.2100
3600.0000;26632.6500
3601.0000;26581.0100
3602.0000;26604.5700
3603.0000;26603.8000
3604.0000;26543.5300
3605.0000;26487.6700
3606.0000;26453.3900
3607.0000;26439.5900
3608.0000;26438.8700
3609.0000;26444.1400
3610.0000;26459.8200
3611.0000;26465.9500
3612.0000;26440.8000
3613.0000;26402.4200
3614.0000;26377.9100
3615.0000;26416.4200
3616.0000;26424.9300
3617.0000;26304.9000
3618.0000;26201.9700
3619.0000;26176.7600
3620.0000;26158.2300
3621.0000;26153.0900
3622.0000;26139.8000
3623.0000;26114.4400
3624.0000;26080.4600
3625.0000;26044.4900
3626.0000;26020.9000
3627.0000;26011.2100
3628.0000;25975.7000
3629.0000;25937.2000
3630.0000;25956.5100
3631.0000;25985.8000
3632.0000;25984.2000
3633.0000;25989.9500
3634.0000;26004.4800
3635.0000;26026.7500
3636.0000;26035.1200
3637.0000;26021.3600
3638.0000;26016.2900
3639.0000;25996.4900
3640.0000;25923.9200
3641.0000;25853.4300
3642.0000;25817.2000
3643.0000;25786.7000
3644.0000;25770.7600
3645.0000;25756.4600
3646.0000;25766.6100
3647.0000;25792.1100
3648.0000;25782.4700
3649.0000;25773.2900
3650.0000;25801.9500
3651.0000;25762.6800
3652.0000;25659.1900
3653.0000;25570.2900
3654.0000;25543.2900
3655.0000;25589.3600
3656.0000;25614.1000
3657.0000;25607.1700
3658.0000;25612.0000
3659.0000;25576.8200
3660.0000;25492.8700
3661.0000;25410.2100
3662.0000;25351.7400
3663.0000;25308.0500
3664.0000;25274.4900
3665.0000;25251.7700
3666.0000;25250.9100
3667.0000;25259.1600
3668.0000;25248.8600
3669.0000;25238.9500
3670.0000;25218.7900
3671.0000;25132.0000
3672.0000;25100.6700
3673.0000;25191.7800
3674.0000;25202.2400
3675.0000;25140.3600
3676.0000;25133.1900
3677.0000;25104.8200
3678.0000;25044.2700
3679.0000;25040.7200
3680.0000;25068.9600
3681.0000;25061.5900
3682.0000;25014.6600
3683.0000;24945.7200
3684.0000;24909.1800
3685.0000;24906.3900
3686.0000;24919.8400
3687.0000;24974.7800
3688.0000;25035.9800
3689.0000;25043.5800
3690.0000;25022.7700
3691.0000;25011.5500
3692.0000;25073.7700
3693.0000;25115.2600
3694.0000;25001.7200
3695.0000;24921.0800
3696.0000;24931.8700
3697.0000;24886.8800
3698.0000;24850.0000
3699.0000;24862.8200
3700.0000;24849.0000
3701.0000;24816.0200
3702.0000;24804.0400
3703.0000;24857.1800
3704.0000;24957.0400
3705.0000;24949.5800
3706.0000;24852.0500
3707.0000;24759.8900
3708.0000;24668.1100
3709.0000;24609.9800
3710.0000;24579.3200
3711.0000;24580.6200
3712.0000;24586.9900
3713.0000;24599.0200
3714.0000;24616.2800
3715.0000;24641.5600
3716.0000;24652.6300
3717.0000;24643.9000
3718.0000;24652.9600
3719.0000;24662.0300
3720.0000;24652.3700
3721.0000;24638.7100
3722.0000;24632.0600
3723.0000;24647.0200
3724.0000;24641.7900
3725.0000;24594.7400
3726.0000;24532.1500
3727.0000;24479.6100
3728.0000;24454.9100
3729.0000;24442.8000
3730.0000;24429.9700
3731.0000;24384.6000
3732.0000;24342.2200
3733.0000;24330.8200
3734.0000;24337.6200
3735.0000;24330.8600
3736.0000;24262.0200
3737.0000;24169.3700
3738.0000;24090.4500
3739.0000;24034.6700
3740.0000;23993.6100
3741.0000;23942.9200
3742.0000;23922.7100
3743.0000;23935.1600
3744.0000;23939.8600
3745.0000;23960.8300
3746.0000;23990.1500
3747.0000;23995.0300
3748.0000;23986.7800
3749.0000;23985.2400
3750.0000;23952.2200
3751.0000;23906.5700
3752.0000;23898.5100
3753.0000;23878.4000
3754.0000;23835.8000
3755.0000;23820.9700
3756.0000;23803.8700
3757.0000;23750.2600
3758.0000;23735.0500
3759.0000;23763.5900
3760.0000;23789.0500
3761.0000;23802.5100
3762.0000;23801.1700
3763.0000;23830.6200
3764.0000;23857.1400
3765.0000;23849.1800
3766.0000;23826.8900
3767.0000;23792.4400
3768.0000;23743.4800
3769.0000;23722.3800
3770.0000;23741.9200
3771.0000;23747.4000
3772.0000;23747.7100
3773.0000;23751.3600
3774.0000;23789.3300
3775.0000;23833.5300
3776.0000;23836.8000
3777.0000;23808.0100
3778.0000;23772.7200
3779.0000;23783.2400
3780.0000;23792.0800
3781.0000;23760.1500
3782.0000;23731.7700
3783.0000;23727.5900
3784.0000;23755.0900
3785.0000;23770.9200
3786.0000;23750.2200
3787.0000;23696.4300
3788.0000;23631.8200
3789.0000;23585.8400
3790.0000;23546.7000
3791.0000;23538.8100
3792.0000;23563.7100
3793.0000;23617.3800
3794.0000;23640.8400
3795.0000;23534.6100
3796.0000;23483.1600
3797.0000;23553.8400
3798.0000;23525.6700
3799.0000;23490.0200
3800.0000;23534.7100
3801.0000;23521.2800
3802.0000;23454.4700
3803.0000;23397.1600
3804.0000;23369.1100
3805.0000;23375.4700
3806.0000;23366.8800
3807.0000;23342.5500
3808.0000;23302.3700
3809.0000;23268.8600
3810.0000;23224.9000
3811.0000;23144.7000
3812.0000;23068.0700
3813.0000;23019.4700
3814.0000;22983.7200
3815.0000;22968.6400
3816.0000;22959.2500
3817.0000;22923.3800
3818.0000;22857.5600
3819.0000;22773.8000
3820.0000;22728.8900
3821.0000;22720.6600
3822.0000;22701.6500
3823.0000;22703.3800
3824.0000;22716.7100
3825.0000;22705.1800
3826.0000;22670.5000
3827.0000;22621.3500
3828.0000;22567.2500
3829.0000;22527.9400
3830.0000;22507.2000
3831.0000;22456.4900
3832.0000;22428.0500
3833.0000;22482.9000
3834.0000;22510.4300
3835.0000;22473.6900
3836.0000;22400.4400
3837.0000;22347.8500
3838.0000;22353.7800
3839.0000;22381.7500
3840.0000;22381.2800
3841.0000;22315.0700
3842.0000;22289.2100
3843.0000;22277.1500
3844.0000;22214.9400
3845.0000;22158.8600
3846.0000;22159.5200
3847.0000;22246.5200
3848.0000;22325.6200
3849.0000;22341.3400
3850.0000;22360.0000
3851.0000;22378.6300
3852.0000;22397.8900
3853.0000;22358.9500
3854.0000;22329.4200
3855.0000;22387.4000
3856.0000;22389.2000
3857.0000;22314.5100
3858.0000;22209.9700
3859.0000;22160.1000
3860.0000;22186.4000
3861.0000;22186.2800
3862.0000;22182.9100
3863.0000;22183.1800
3864.0000;22207.5600
3865.0000;22220.3300
3866.0000;22191.7800
3867.0000;22143.9100
3868.0000;22091.3700
3869.0000;22051.3300
3870.0000;21999.7500
3871.0000;21950.7500
3872.0000;21918.4300
3873.0000;21888.7500
3874.0000;21868.2500
3875.0000;21884.5300
3876.0000;21895.1800
3877.0000;21878.5600
3878.0000;21898.8000
3879.0000;21904.1200
3880.0000;21857.7600
3881.0000;21846.9800
3882.0000;21853.2800
3883.0000;21831.4200
3884.0000;21812.6600
3885.0000;21778.8900
3886.0000;21689.8300
3887.0000;21627.3500
3888.0000;21602.1900
3889.0000;21502.9700
3890.0000;21421.0300
3891.0000;21399.0200
3892.0000;21370.4800
3893.0000;21384.3700
3894.0000;21441.9900
3895.0000;21462.9200
3896.0000;21452.0100
3897.0000;21433.6100
3898.0000;21360.0200
3899.0000;21264.3700
3900.0000;21203.9700
3901.0000;21191.0000
3902.0000;21206.5500
3903.0000;21176.3200
3904.0000;21146.2300
3905.0000;21130.6400
3906.0000;21113.1200
3907.0000;21095.2100
3908.0000;21080.7600
3909.0000;21088.4600
3910.0000;21072.7400
3911.0000;21018.9600
3912.0000;21017.0900
3913.0000;21040.5000
3914.0000;21047.9800
3915.0000;21097.7700
3916.0000;21144.3200
3917.0000;21130.1800
3918.0000;21138.1000
3919.0000;21151.3400
3920.0000;21118.0100
3921.0000;21090.5400
3922.0000;21064.4600
3923.0000;20987.5900
3924.0000;20958.0600
3925.0000;20978.8000
3926.0000;20919.3100
3927.0000;20870.9800
3928.0000;20873.4000
3929.0000;20859.3100
3930.0000;20870.7600
3931.0000;20905.1300
3932.0000;20866.3900
3933.0000;20818.0500
3934.0000;20815.5500
3935.0000;20753.5500
3936.0000;20699.3000
3937.0000;20715.6200
3938.0000;20692.6300
3939.0000;20640.2500
3940.0000;20596.8000
3941.0000;20541.3100
3942.0000;20514.7300
3943.0000;20551.2300
3944.0000;20557.2600
3945.0000;20522.3900
3946.0000;20490.1300
3947.0000;20469.7800
3948.0000;20450.4900
3949.0000;20386.0400
3950.0000;20337.7800
3951.0000;20323.1500
3952.0000;20298.3800
3953.0000;20244.2400
3954.0000;20178.2100
3955.0000;20172.6000
3956.0000;20169.7400
3957.0000;20128.6700
3958.0000;20069.7800
3959.0000;20022.2200
3960.0000;20006.4400
3961.0000;19987.4100
3962.0000;19983.5800
3963.0000;19980.7500
3964.0000;19856.8700
3965.0000;19743.5700
3966.0000;19756.3800
3967.0000;19689.6000
3968.0000;19600.5200
3969.0000;19570.0200
3970.0000;19562.3700
3971.0000;19572.2500
3972.0000;19578.0700
3973.0000;19581.3500
3974.0000;19579.4600
3975.0000;19573.1800
3976.0000;19563.7600
3977.0000;19541.7400
3978.0000;19497.0600
3979.0000;19438.3000
3980.0000;19397.5200
3981.0000;19400.5100
3982.0000;19362.9600
3983.0000;19309.4200
3984.0000;19323.7100
3985.0000;19370.1400
3986.0000;19382.8800
3987.0000;19280.6500
3988.0000;19209.1900
3989.0000;19197.6500
3990.0000;19147.3000
3991.0000;19158.5600
3992.0000;19208.4100
3993.0000;19167.3600
3994.0000;19132.4500
3995.0000;19144.6100
3996.0000;19186.9500
3997.0000;19218.6500
3998.0000;19205.8700
3999.0000;19147.6200
4000.0000;19103.1700
4001.0000;19099.6300
4002.0000;19089.7400
4003.0000;19101.3100
4004.0000;19124.0500
4005.0000;19114.4900
4006.0000;19124.5600
4007.0000;19156.6300
4008.0000;19152.0000
4009.0000;19120.4500
4010.0000;19074.8800
4011.0000;19029.9900
4012.0000;18949.9900
4013.0000;18859.8700
4014.0000;18830.3100
4015.0000;18839.8800
4016.0000;18842.8300
4017.0000;18776.8200
4018.0000;18704.5600
4019.0000;18680.4200
4020.0000;18708.8800
4021.0000;18749.6300
4022.0000;18753.7100
4023.0000;18695.6200
4024.0000;18670.9000
4025.0000;18693.5100
4026.0000;18649.1600
4027.0000;18576.1300
4028.0000;18520.0100
4029.0000;18519.8300
4030.0000;18504.4500
4031.0000;18467.6500
4032.0000;18477.3500
4033.0000;18470.6600
4034.0000;18432.0100
4035.0000;18391.5400
4036.0000;18341.0600
4037.0000;18291.3600
4038.0000;18248.0000
4039.0000;18233.0000
4040.0000;18232.7200
4041.0000;18199.3600
4042.0000;18134.6400
4043.0000;18066.5300
4044.0000;18035.3100
4045.0000;18033.1700
4046.0000;18048.7100
4047.0000;18054.6500
4048.0000;18112.8500
4049.0000;18154.4200
4050.0000;18074.9600
4051.0000;18051.1200
4052.0000;18066.6600
4053.0000;18026.3800
4054.0000;17995.6300
4055.0000;17994.7500
4056.0000;18021.1600
4057.0000;18085.4600
4058.0000;18126.8500
4059.0000;18090.0900
4060.0000;18059.0400
4061.0000;18063.6700
4062.0000;18101.3200
4063.0000;18073.6500
4064.0000;17997.6600
4065.0000;17931.2800
4066.0000;17916.8400
4067.0000;17966.5900
4068.0000;18031.4800
4069.0000;17984.5300
4070.0000;17958.0900
4071.0000;18017.2700
4072.0000;18010.6400
4073.0000;17977.6100
4074.0000;17948.1600
4075.0000;17925.2800
4076.0000;17866.6300
4077.0000;17779.6600
4078.0000;17718.5300
4079.0000;17657.7600
4080.0000;17616.6800
4081.0000;17628.0100
4082.0000;17591.9600
4083.0000;17499.9400
4084.0000;17408.9600
4085.0000;17341.3200
4086.0000;17320.5200
4087.0000;17331.2700
4088.0000;17337.7100
4089.0000;17302.3600
4090.0000;17219.3700
4091.0000;17217.4400
4092.0000;17254.2800
4093.0000;17254.5500
4094.0000;17227.6700
4095.0000;17244.8300
4096.0000;17326.9300
4097.0000;17340.6800
4098.0000;17347.1500
4099.0000;17362.8600
4100.0000;17297.1700
4101.0000;17262.9400
4102.0000;17275.1300
4103.0000;17209.6900
4104.0000;17128.0600
4105.0000;17044.0300
4106.0000;16930.7900
4107.0000;16775.6100
4108.0000;16643.3900
4109.0000;16593.5100
4110.0000;16485.0300
4111.0000;16321.9600
4112.0000;16152.2800
4113.0000;15962.3000
4114.0000;15812.3800
4115.0000;15715.3200
4116.0000;15522.1300
4117.0000;15327.9800
4118.0000;15184.4000
4119.0000;15013.5600
4120.0000;14806.3700
4121.0000;14579.8200
4122.0000;14384.8800
4123.0000;14162.2600
4124.0000;13931.7100
4125.0000;13721.0300
4126.0000;13510.3400
4127.0000;13298.1100
4128.0000;13057.5700
4129.0000;12828.0200
4130.0000;12569.2100
4131.0000;12247.6100
4132.0000;12014.5900
4133.0000;11818.0800
4134.0000;11582.0100
4135.0000;11293.4400
4136.0000;11020.4000
4137.0000;10786.4700
4138.0000;10513.4300
4139.0000;10283.0100
4140.0000;10098.8500
4141.0000;9875.9770
4142.0000;9653.9520
4143.0000;9451.6940
4144.0000;9252.6550
4145.0000;9050.6380
4146.0000;8889.3420
4147.0000;8773.3700
4148.0000;8640.3390
4149.0000;8522.3970
4150.0000;8423.5000
4151.0000;8306.6390
4152.0000;8203.0490
4153.0000;8122.2340
4154.0000;8035.8310
4155.0000;7973.3690
4156.0000;7913.7030
4157.0000;7819.0100
4158.0000;7743.3100
4159.0000;7688.2940
4160.0000;7635.5920
4161.0000;7572.3480
4162.0000;7517.8780
4163.0000;7474.9080
4164.0000;7415.6380
4165.0000;7381.2980
4166.0000;7376.5410
4167.0000;7367.7420
4168.0000;7364.7490
4169.0000;7374.6490
4170.0000;7393.1690
4171.0000;7374.9820
4172.0000;7345.2570
4173.0000;7339.8200
4174.0000;7368.9650
4175.0000;7403.5810
4176.0000;7395.6730
4177.0000;7312.1710
4178.0000;7275.6530
4179.0000;7282.1010
4180.0000;7250.2480
4181.0000;7242.6350
4182.0000;7251.8030
4183.0000;7249.6440
4184.0000;7215.1890
4185.0000;7161.9540
4186.0000;7127.9990
4187.0000;7149.6650
4188.0000;7184.9950
4189.0000;7204.6250
4190.0000;7204.4580
4191.0000;7244.2350
4192.0000;7271.4870
4193.0000;7239.5050
4194.0000;7253.9380
4195.0000;7247.8880
4196.0000;7191.8720
4197.0000;7134.1980
4198.0000;7097.9810
4199.0000;7090.0840
4200.0000;7085.4290
4201.0000;7042.5810
4202.0000;7014.3180
4203.0000;7043.7350
4204.0000;7047.5250
4205.0000;7044.1590
4206.0000;7046.9280
4207.0000;7057.1840
4208.0000;7055.3250
4209.0000;7058.0350
4210.0000;7092.2360
4211.0000;7082.2750
4212.0000;7059.4180
4213.0000;7060.6600
4214.0000;7038.4530
4215.0000;7017.0110
4216.0000;6995.9230
4217.0000;6942.5270
4218.0000;6916.4940
4219.0000;6919.3930
4220.0000;6922.8100
4221.0000;6954.0860
4222.0000;6982.3060
4223.0000;6985.9210
4224.0000;6999.9000
4225.0000;6963.2290
4226.0000;6893.6630
4227.0000;6862.1000
4228.0000;6832.4610
4229.0000;6806.7200
4230.0000;6793.9790
4231.0000;6840.0380
4232.0000;6867.1810
4233.0000;6843.4440
4234.0000;6832.4260
4235.0000;6790.0150
4236.0000;6082.1890
4237.0000;4310.2830
4238.0000;2285.5950
